title:123                                                                             , recorded:19.02.16 19.36.31, sampling:128, subject:yjkee                                                                           , labels:COUNTER INTERPOLATED AF3 F7 F3 FC5 T7 P7 O1 O2 P8 T8 FC6 F4 F8 AF4 RAW_CQ CQ_AF3 CQ_F7 CQ_F3 CQ_FC5 CQ_T7 CQ_P7 CQ_O1 CQ_O2 CQ_P8 CQ_T8 CQ_FC6 CQ_F4 CQ_F8 CQ_AF4 CQ_CMS CQ_DRL GYROX GYROY MARKER, chan:36, units:emotiv
74.00000000000000000000, 0.00000000000000000000, 4032.30759370491840000000, 4006.66656869089730000000, 4116.41015575090660000000, 4150.76912926969450000000, 3964.10246716762280000000, 4227.69220431175750000000, 4175.89733378343500000000, 4256.41015232746030000000, 4456.92296793710370000000, 4310.25630485690450000000, 3926.66657064715220000000, 4130.76912975875800000000, 4045.12810621192880000000, 3839.99990609976200000000, 0.00000000000000000000, 0.00000000000000000000, 0.00000000000000000000, 0.00000000000000000000, 0.00000000000000000000, 0.00000000000000000000, 0.00000000000000000000, 0.00000000000000000000, 0.00000000000000000000, 0.00000000000000000000, 0.00000000000000000000, 0.00000000000000000000, 0.00000000000000000000, 0.00000000000000000000, 0.00000000000000000000, 1.00000000000000000000, 1.00000000000000000000, 1665.00000000000000000000, 1678.00000000000000000000, 0.00000000000000000000
75.00000000000000000000, 0.00000000000000000000, 4037.43579870772240000000, 4005.64092769033640000000, 4111.28195074810260000000, 4151.28194976997470000000, 3964.10246716762280000000, 4226.15374281091590000000, 4177.94861578455680000000, 4257.94861382830190000000, 4459.48707043850570000000, 4311.79476635774520000000, 3924.61528864603090000000, 4134.87169376100160000000, 4045.64092671220900000000, 3837.43580359836010000000, 0.00000000000000000000, 0.00000000000000000000, 0.00000000000000000000, 0.00000000000000000000, 0.00000000000000000000, 0.00000000000000000000, 0.00000000000000000000, 0.00000000000000000000, 0.00000000000000000000, 0.00000000000000000000, 0.00000000000000000000, 0.00000000000000000000, 0.00000000000000000000, 0.00000000000000000000, 0.00000000000000000000, 1.00000000000000000000, 1.00000000000000000000, 1667.00000000000000000000, 1680.00000000000000000000, 0.00000000000000000000
76.00000000000000000000, 0.00000000000000000000, 4041.53836270996590000000, 4005.12810719005620000000, 4110.25630974754130000000, 4151.28194976997470000000, 3961.53836466622080000000, 4229.74348631287920000000, 4179.99989778567850000000, 4259.48707532914250000000, 4458.97424993822550000000, 4310.25630485690450000000, 3925.12810914631110000000, 4133.33323226016000000000, 4042.05118321024610000000, 3836.92298309807940000000, 0.00000000000000000000, 0.00000000000000000000, 0.00000000000000000000, 0.00000000000000000000, 0.00000000000000000000, 0.00000000000000000000, 0.00000000000000000000, 0.00000000000000000000, 0.00000000000000000000, 0.00000000000000000000, 0.00000000000000000000, 0.00000000000000000000, 0.00000000000000000000, 0.00000000000000000000, 0.00000000000000000000, 1.00000000000000000000, 1.00000000000000000000, 1668.00000000000000000000, 1681.00000000000000000000, 0.00000000000000000000
77.00000000000000000000, 0.00000000000000000000, 4041.02554220968520000000, 4006.66656869089730000000, 4113.33323274922440000000, 4151.28194976997470000000, 3958.97426216481880000000, 4232.30758881428120000000, 4172.30759028147170000000, 4258.46143432858210000000, 4457.43578843738400000000, 4307.17938185522140000000, 3926.15375014687200000000, 4127.17938625679560000000, 4043.07682421080700000000, 3839.99990609976200000000, 0.00000000000000000000, 0.00000000000000000000, 0.00000000000000000000, 0.00000000000000000000, 0.00000000000000000000, 0.00000000000000000000, 0.00000000000000000000, 0.00000000000000000000, 0.00000000000000000000, 0.00000000000000000000, 0.00000000000000000000, 0.00000000000000000000, 0.00000000000000000000, 0.00000000000000000000, 0.00000000000000000000, 1.00000000000000000000, 1.00000000000000000000, 1668.00000000000000000000, 1682.00000000000000000000, 0.00000000000000000000
78.00000000000000000000, 0.00000000000000000000, 4046.15374721248960000000, 4008.71785069201910000000, 4114.35887374978480000000, 4151.28194976997470000000, 3960.51272366565990000000, 4228.71784531231790000000, 4166.15374427810730000000, 4258.46143432858210000000, 4458.46142943794440000000, 4311.28194585746500000000, 3924.10246814575020000000, 4126.66656575651540000000, 4046.15374721248960000000, 3843.58964960172490000000, 0.00000000000000000000, 0.00000000000000000000, 0.00000000000000000000, 0.00000000000000000000, 0.00000000000000000000, 0.00000000000000000000, 0.00000000000000000000, 0.00000000000000000000, 0.00000000000000000000, 0.00000000000000000000, 0.00000000000000000000, 0.00000000000000000000, 0.00000000000000000000, 0.00000000000000000000, 0.00000000000000000000, 1.00000000000000000000, 1.00000000000000000000, 1669.00000000000000000000, 1683.00000000000000000000, 0.00000000000000000000
79.00000000000000000000, 0.00000000000000000000, 4050.25631121473270000000, 4005.64092769033640000000, 4116.92297625118680000000, 4151.28194976997470000000, 3962.56400566678170000000, 4226.66656331119610000000, 4170.25630828035080000000, 4258.97425482886230000000, 4458.97424993822550000000, 4314.35886885914720000000, 3924.10246814575020000000, 4129.74348875819760000000, 4045.64092671220900000000, 3842.56400860116400000000, 0.00000000000000000000, 0.00000000000000000000, 0.00000000000000000000, 0.00000000000000000000, 0.00000000000000000000, 0.00000000000000000000, 0.00000000000000000000, 0.00000000000000000000, 0.00000000000000000000, 0.00000000000000000000, 0.00000000000000000000, 0.00000000000000000000, 0.00000000000000000000, 0.00000000000000000000, 0.00000000000000000000, 1.00000000000000000000, 1.00000000000000000000, 1669.00000000000000000000, 1684.00000000000000000000, 0.00000000000000000000
80.00000000000000000000, 0.00000000000000000000, 4047.17938821305050000000, 4003.07682518893440000000, 4119.99989925286990000000, 4151.28194976997470000000, 3963.07682616706190000000, 4227.69220431175750000000, 4173.84605178231320000000, 4259.99989582942360000000, 4458.97424993822550000000, 4313.33322785858670000000, 3925.64092964659180000000, 4128.71784775763630000000, 4045.64092671220900000000, 3840.51272660004220000000, 0.00000000000000000000, 0.00000000000000000000, 0.00000000000000000000, 0.00000000000000000000, 0.00000000000000000000, 0.00000000000000000000, 0.00000000000000000000, 0.00000000000000000000, 0.00000000000000000000, 0.00000000000000000000, 0.00000000000000000000, 0.00000000000000000000, 0.00000000000000000000, 0.00000000000000000000, 0.00000000000000000000, 1.00000000000000000000, 1.00000000000000000000, 1670.00000000000000000000, 1683.00000000000000000000, 0.00000000000000000000
81.00000000000000000000, 0.00000000000000000000, 4044.10246521136790000000, 4005.64092769033640000000, 4119.99989925286990000000, 4151.28194976997470000000, 3963.58964666734250000000, 4225.64092231063570000000, 4174.35887228259340000000, 4261.02553682998400000000, 4460.51271143906620000000, 4313.84604835886690000000, 3927.17939114743290000000, 4125.12810425567390000000, 4044.61528571164810000000, 3841.53836760060310000000, 0.00000000000000000000, 0.00000000000000000000, 0.00000000000000000000, 0.00000000000000000000, 0.00000000000000000000, 0.00000000000000000000, 0.00000000000000000000, 0.00000000000000000000, 0.00000000000000000000, 0.00000000000000000000, 0.00000000000000000000, 0.00000000000000000000, 0.00000000000000000000, 0.00000000000000000000, 0.00000000000000000000, 1.00000000000000000000, 1.00000000000000000000, 1669.00000000000000000000, 1682.00000000000000000000, 0.00000000000000000000
82.00000000000000000000, 0.00000000000000000000, 4044.10246521136790000000, 4008.20503019173880000000, 4119.99989925286990000000, 4151.28194976997470000000, 3965.12810816818360000000, 4224.61528131007440000000, 4178.97425678511720000000, 4260.51271632970380000000, 4461.02553193934640000000, 4314.35886885914720000000, 3930.76913464939570000000, 4124.61528375539360000000, 4045.64092671220900000000, 3841.02554710032290000000, 0.00000000000000000000, 0.00000000000000000000, 0.00000000000000000000, 0.00000000000000000000, 0.00000000000000000000, 0.00000000000000000000, 0.00000000000000000000, 0.00000000000000000000, 0.00000000000000000000, 0.00000000000000000000, 0.00000000000000000000, 0.00000000000000000000, 0.00000000000000000000, 0.00000000000000000000, 0.00000000000000000000, 1.00000000000000000000, 1.00000000000000000000, 1670.00000000000000000000, 1681.00000000000000000000, 0.00000000000000000000
83.00000000000000000000, 0.00000000000000000000, 4045.12810621192880000000, 4008.20503019173880000000, 4122.56400175427190000000, 4151.28194976997470000000, 3964.10246716762280000000, 4226.15374281091590000000, 4179.48707728539830000000, 4258.97425482886230000000, 4459.48707043850570000000, 4314.35886885914720000000, 3931.28195514967590000000, 4126.15374525623430000000, 4049.23067021417180000000, 3839.48708559948140000000, 0.00000000000000000000, 0.00000000000000000000, 0.00000000000000000000, 0.00000000000000000000, 0.00000000000000000000, 0.00000000000000000000, 0.00000000000000000000, 0.00000000000000000000, 0.00000000000000000000, 0.00000000000000000000, 0.00000000000000000000, 0.00000000000000000000, 0.00000000000000000000, 0.00000000000000000000, 0.00000000000000000000, 1.00000000000000000000, 1.00000000000000000000, 1669.00000000000000000000, 1682.00000000000000000000, 0.00000000000000000000
84.00000000000000000000, 0.00000000000000000000, 4046.15374721248960000000, 4009.74349169257990000000, 4121.02554025343030000000, 4151.28194976997470000000, 3962.56400566678170000000, 4226.15374281091590000000, 4175.38451328315480000000, 4258.97425482886230000000, 4459.99989093878590000000, 4313.33322785858670000000, 3928.71785264827390000000, 4125.64092475595410000000, 4048.71784971389160000000, 3841.02554710032290000000, 0.00000000000000000000, 0.00000000000000000000, 0.00000000000000000000, 0.00000000000000000000, 0.00000000000000000000, 0.00000000000000000000, 0.00000000000000000000, 0.00000000000000000000, 0.00000000000000000000, 0.00000000000000000000, 0.00000000000000000000, 0.00000000000000000000, 0.00000000000000000000, 0.00000000000000000000, 0.00000000000000000000, 1.00000000000000000000, 1.00000000000000000000, 1671.00000000000000000000, 1682.00000000000000000000, 0.00000000000000000000
85.00000000000000000000, 0.00000000000000000000, 4042.56400371052680000000, 4010.76913269314080000000, 4118.97425825230860000000, 4151.28194976997470000000, 3964.10246716762280000000, 4228.20502481203770000000, 4176.92297478399540000000, 4258.97425482886230000000, 4461.53835243962750000000, 4312.82040735830650000000, 3928.71785264827390000000, 4126.15374525623430000000, 4043.58964471108720000000, 3841.53836760060310000000, 0.00000000000000000000, 0.00000000000000000000, 0.00000000000000000000, 0.00000000000000000000, 0.00000000000000000000, 0.00000000000000000000, 0.00000000000000000000, 0.00000000000000000000, 0.00000000000000000000, 0.00000000000000000000, 0.00000000000000000000, 0.00000000000000000000, 0.00000000000000000000, 0.00000000000000000000, 0.00000000000000000000, 1.00000000000000000000, 1.00000000000000000000, 1670.00000000000000000000, 1682.00000000000000000000, 0.00000000000000000000
86.00000000000000000000, 0.00000000000000000000, 4040.51272170940500000000, 4007.69220969145820000000, 4119.99989925286990000000, 4151.28194976997470000000, 3965.64092866846390000000, 4230.25630681315940000000, 4176.92297478399540000000, 4258.46143432858210000000, 4464.10245494102950000000, 4314.87168935942830000000, 3928.71785264827390000000, 4128.20502725735610000000, 4042.05118321024610000000, 3840.51272660004220000000, 0.00000000000000000000, 0.00000000000000000000, 0.00000000000000000000, 0.00000000000000000000, 0.00000000000000000000, 0.00000000000000000000, 0.00000000000000000000, 0.00000000000000000000, 0.00000000000000000000, 0.00000000000000000000, 0.00000000000000000000, 0.00000000000000000000, 0.00000000000000000000, 0.00000000000000000000, 0.00000000000000000000, 1.00000000000000000000, 1.00000000000000000000, 1669.00000000000000000000, 1684.00000000000000000000, 0.00000000000000000000
87.00000000000000000000, 0.00000000000000000000, 4042.56400371052680000000, 4006.66656869089730000000, 4118.46143775202840000000, 4151.28194976997470000000, 3963.58964666734250000000, 4229.23066581259810000000, 4173.84605178231320000000, 4257.43579332802160000000, 4464.10245494102950000000, 4313.84604835886690000000, 3925.12810914631110000000, 4128.20502725735610000000, 4045.64092671220900000000, 3839.48708559948140000000, 0.00000000000000000000, 0.00000000000000000000, 0.00000000000000000000, 0.00000000000000000000, 0.00000000000000000000, 0.00000000000000000000, 0.00000000000000000000, 0.00000000000000000000, 0.00000000000000000000, 0.00000000000000000000, 0.00000000000000000000, 0.00000000000000000000, 0.00000000000000000000, 0.00000000000000000000, 0.00000000000000000000, 1.00000000000000000000, 1.00000000000000000000, 1671.00000000000000000000, 1680.00000000000000000000, 0.00000000000000000000
88.00000000000000000000, 0.00000000000000000000, 4042.56400371052680000000, 4009.23067119229930000000, 4115.38451475034620000000, 4151.28194976997470000000, 3964.10246716762280000000, 4228.20502481203770000000, 4177.94861578455680000000, 4257.43579332802160000000, 4460.51271143906620000000, 4312.30758685802630000000, 3927.69221164771310000000, 4127.69220675707580000000, 4046.66656771276980000000, 3839.99990609976200000000, 0.00000000000000000000, 0.00000000000000000000, 0.00000000000000000000, 0.00000000000000000000, 0.00000000000000000000, 0.00000000000000000000, 0.00000000000000000000, 0.00000000000000000000, 0.00000000000000000000, 0.00000000000000000000, 0.00000000000000000000, 0.00000000000000000000, 0.00000000000000000000, 0.00000000000000000000, 0.00000000000000000000, 1.00000000000000000000, 1.00000000000000000000, 1670.00000000000000000000, 1680.00000000000000000000, 0.00000000000000000000
89.00000000000000000000, 0.00000000000000000000, 4043.58964471108720000000, 4011.28195319342100000000, 4113.33323274922440000000, 4150.76912926969450000000, 3964.61528766790340000000, 4227.17938381147630000000, 4182.05117978680030000000, 4258.46143432858210000000, 4458.46142943794440000000, 4313.33322785858670000000, 3932.30759615023680000000, 4125.64092475595410000000, 4044.10246521136790000000, 3841.02554710032290000000, 0.00000000000000000000, 0.00000000000000000000, 0.00000000000000000000, 0.00000000000000000000, 0.00000000000000000000, 0.00000000000000000000, 0.00000000000000000000, 0.00000000000000000000, 0.00000000000000000000, 0.00000000000000000000, 0.00000000000000000000, 0.00000000000000000000, 0.00000000000000000000, 0.00000000000000000000, 0.00000000000000000000, 1.00000000000000000000, 1.00000000000000000000, 1671.00000000000000000000, 1680.00000000000000000000, 0.00000000000000000000
90.00000000000000000000, 0.00000000000000000000, 4046.66656771276980000000, 4009.74349169257990000000, 4110.76913024782240000000, 4150.76912926969450000000, 3964.10246716762280000000, 4226.66656331119610000000, 4179.48707728539830000000, 4257.94861382830190000000, 4458.46142943794440000000, 4314.35886885914720000000, 3928.71785264827390000000, 4121.53836075371050000000, 4042.56400371052680000000, 3841.53836760060310000000, 0.00000000000000000000, 0.00000000000000000000, 0.00000000000000000000, 0.00000000000000000000, 0.00000000000000000000, 0.00000000000000000000, 0.00000000000000000000, 0.00000000000000000000, 0.00000000000000000000, 0.00000000000000000000, 0.00000000000000000000, 0.00000000000000000000, 0.00000000000000000000, 0.00000000000000000000, 0.00000000000000000000, 1.00000000000000000000, 1.00000000000000000000, 1671.00000000000000000000, 1680.00000000000000000000, 0.00000000000000000000
91.00000000000000000000, 0.00000000000000000000, 4045.12810621192880000000, 4008.20503019173880000000, 4112.30759174866310000000, 4151.28194976997470000000, 3964.10246716762280000000, 4227.17938381147630000000, 4176.41015428371520000000, 4257.94861382830190000000, 4458.97424993822550000000, 4313.84604835886690000000, 3927.17939114743290000000, 4121.53836075371050000000, 4044.10246521136790000000, 3838.97426509920110000000, 0.00000000000000000000, 0.00000000000000000000, 0.00000000000000000000, 0.00000000000000000000, 0.00000000000000000000, 0.00000000000000000000, 0.00000000000000000000, 0.00000000000000000000, 0.00000000000000000000, 0.00000000000000000000, 0.00000000000000000000, 0.00000000000000000000, 0.00000000000000000000, 0.00000000000000000000, 0.00000000000000000000, 1.00000000000000000000, 1.00000000000000000000, 1672.00000000000000000000, 1680.00000000000000000000, 0.00000000000000000000
92.00000000000000000000, 0.00000000000000000000, 4044.61528571164810000000, 4011.28195319342100000000, 4116.92297625118680000000, 4150.25630876941430000000, 3965.64092866846390000000, 4226.15374281091590000000, 4175.89733378343500000000, 4259.48707532914250000000, 4462.05117293990770000000, 4314.87168935942830000000, 3929.74349364883480000000, 4124.61528375539360000000, 4045.12810621192880000000, 3838.46144459892050000000, 0.00000000000000000000, 0.00000000000000000000, 0.00000000000000000000, 0.00000000000000000000, 0.00000000000000000000, 0.00000000000000000000, 0.00000000000000000000, 0.00000000000000000000, 0.00000000000000000000, 0.00000000000000000000, 0.00000000000000000000, 0.00000000000000000000, 0.00000000000000000000, 0.00000000000000000000, 0.00000000000000000000, 1.00000000000000000000, 1.00000000000000000000, 1670.00000000000000000000, 1681.00000000000000000000, 0.00000000000000000000
93.00000000000000000000, 0.00000000000000000000, 4043.58964471108720000000, 4011.79477369370170000000, 4117.43579675146700000000, 4149.74348826913410000000, 3968.20503116986630000000, 4228.71784531231790000000, 4174.35887228259340000000, 4257.94861382830190000000, 4464.61527544130970000000, 4314.35886885914720000000, 3928.20503214799370000000, 4124.61528375539360000000, 4045.64092671220900000000, 3841.53836760060310000000, 0.00000000000000000000, 0.00000000000000000000, 0.00000000000000000000, 0.00000000000000000000, 0.00000000000000000000, 0.00000000000000000000, 0.00000000000000000000, 0.00000000000000000000, 0.00000000000000000000, 0.00000000000000000000, 0.00000000000000000000, 0.00000000000000000000, 0.00000000000000000000, 0.00000000000000000000, 0.00000000000000000000, 1.00000000000000000000, 1.00000000000000000000, 1672.00000000000000000000, 1680.00000000000000000000, 0.00000000000000000000
94.00000000000000000000, 0.00000000000000000000, 4041.53836270996590000000, 4010.76913269314080000000, 4115.89733525062640000000, 4151.28194976997470000000, 3966.66656966902470000000, 4232.30758881428120000000, 4173.84605178231320000000, 4256.41015232746030000000, 4465.12809594158990000000, 4313.33322785858670000000, 3928.71785264827390000000, 4124.10246325511250000000, 4046.15374721248960000000, 3841.53836760060310000000, 0.00000000000000000000, 0.00000000000000000000, 0.00000000000000000000, 0.00000000000000000000, 0.00000000000000000000, 0.00000000000000000000, 0.00000000000000000000, 0.00000000000000000000, 0.00000000000000000000, 0.00000000000000000000, 0.00000000000000000000, 0.00000000000000000000, 0.00000000000000000000, 0.00000000000000000000, 0.00000000000000000000, 1.00000000000000000000, 1.00000000000000000000, 1670.00000000000000000000, 1679.00000000000000000000, 0.00000000000000000000
95.00000000000000000000, 0.00000000000000000000, 4041.53836270996590000000, 4012.30759419398190000000, 4118.46143775202840000000, 4152.30759077053610000000, 3966.15374916874450000000, 4229.23066581259810000000, 4177.94861578455680000000, 4256.92297282774050000000, 4463.58963444074930000000, 4314.35886885914720000000, 3932.30759615023680000000, 4123.07682225455210000000, 4045.12810621192880000000, 3838.97426509920110000000, 0.00000000000000000000, 0.00000000000000000000, 0.00000000000000000000, 0.00000000000000000000, 0.00000000000000000000, 0.00000000000000000000, 0.00000000000000000000, 0.00000000000000000000, 0.00000000000000000000, 0.00000000000000000000, 0.00000000000000000000, 0.00000000000000000000, 0.00000000000000000000, 0.00000000000000000000, 0.00000000000000000000, 1.00000000000000000000, 1.00000000000000000000, 1670.00000000000000000000, 1679.00000000000000000000, 0.00000000000000000000
96.00000000000000000000, 0.00000000000000000000, 4043.58964471108720000000, 4013.33323519454280000000, 4114.87169425006500000000, 4151.79477027025500000000, 3969.23067217042720000000, 4226.66656331119610000000, 4178.97425678511720000000, 4257.94861382830190000000, 4462.05117293990770000000, 4314.87168935942830000000, 3930.25631414911550000000, 4122.56400175427190000000, 4043.58964471108720000000, 3839.99990609976200000000, 0.00000000000000000000, 0.00000000000000000000, 0.00000000000000000000, 0.00000000000000000000, 0.00000000000000000000, 0.00000000000000000000, 0.00000000000000000000, 0.00000000000000000000, 0.00000000000000000000, 0.00000000000000000000, 0.00000000000000000000, 0.00000000000000000000, 0.00000000000000000000, 0.00000000000000000000, 0.00000000000000000000, 1.00000000000000000000, 1.00000000000000000000, 1670.00000000000000000000, 1678.00000000000000000000, 0.00000000000000000000
97.00000000000000000000, 0.00000000000000000000, 4045.64092671220900000000, 4011.28195319342100000000, 4109.23066874698090000000, 4152.30759077053610000000, 3966.66656966902470000000, 4228.20502481203770000000, 4178.46143628483700000000, 4258.97425482886230000000, 4462.05117293990770000000, 4312.30758685802630000000, 3927.17939114743290000000, 4124.61528375539360000000, 4044.61528571164810000000, 3842.05118810088380000000, 0.00000000000000000000, 0.00000000000000000000, 0.00000000000000000000, 0.00000000000000000000, 0.00000000000000000000, 0.00000000000000000000, 0.00000000000000000000, 0.00000000000000000000, 0.00000000000000000000, 0.00000000000000000000, 0.00000000000000000000, 0.00000000000000000000, 0.00000000000000000000, 0.00000000000000000000, 0.00000000000000000000, 1.00000000000000000000, 1.00000000000000000000, 1670.00000000000000000000, 1679.00000000000000000000, 0.00000000000000000000
98.00000000000000000000, 0.00000000000000000000, 4046.66656771276980000000, 4010.25631219286020000000, 4110.76913024782240000000, 4153.33323177109650000000, 3963.07682616706190000000, 4227.17938381147630000000, 4178.97425678511720000000, 4258.97425482886230000000, 4461.02553193934640000000, 4311.28194585746500000000, 3928.71785264827390000000, 4125.64092475595410000000, 4043.58964471108720000000, 3840.51272660004220000000, 0.00000000000000000000, 0.00000000000000000000, 0.00000000000000000000, 0.00000000000000000000, 0.00000000000000000000, 0.00000000000000000000, 0.00000000000000000000, 0.00000000000000000000, 0.00000000000000000000, 0.00000000000000000000, 0.00000000000000000000, 0.00000000000000000000, 0.00000000000000000000, 0.00000000000000000000, 0.00000000000000000000, 1.00000000000000000000, 1.00000000000000000000, 1671.00000000000000000000, 1677.00000000000000000000, 0.00000000000000000000
99.00000000000000000000, 0.00000000000000000000, 4046.15374721248960000000, 4010.25631219286020000000, 4114.35887374978480000000, 4150.76912926969450000000, 3966.66656966902470000000, 4226.15374281091590000000, 4174.87169278287460000000, 4255.89733182718010000000, 4459.48707043850570000000, 4313.84604835886690000000, 3926.66657064715220000000, 4124.10246325511250000000, 4042.05118321024610000000, 3837.43580359836010000000, 0.00000000000000000000, 0.00000000000000000000, 0.00000000000000000000, 0.00000000000000000000, 0.00000000000000000000, 0.00000000000000000000, 0.00000000000000000000, 0.00000000000000000000, 0.00000000000000000000, 0.00000000000000000000, 0.00000000000000000000, 0.00000000000000000000, 0.00000000000000000000, 0.00000000000000000000, 0.00000000000000000000, 1.00000000000000000000, 1.00000000000000000000, 1669.00000000000000000000, 1678.00000000000000000000, 0.00000000000000000000
100.00000000000000000000, 0.00000000000000000000, 4045.64092671220900000000, 4009.23067119229930000000, 4119.48707875258880000000, 4150.25630876941430000000, 3968.20503116986630000000, 4228.71784531231790000000, 4172.82041078175280000000, 4254.35887032633850000000, 4461.53835243962750000000, 4313.84604835886690000000, 3924.10246814575020000000, 4125.12810425567390000000, 4042.05118321024610000000, 3838.97426509920110000000, 0.00000000000000000000, 0.00000000000000000000, 0.00000000000000000000, 0.00000000000000000000, 0.00000000000000000000, 0.00000000000000000000, 0.00000000000000000000, 0.00000000000000000000, 0.00000000000000000000, 0.00000000000000000000, 0.00000000000000000000, 0.00000000000000000000, 0.00000000000000000000, 0.00000000000000000000, 0.00000000000000000000, 1.00000000000000000000, 1.00000000000000000000, 1671.00000000000000000000, 1677.00000000000000000000, 0.00000000000000000000
101.00000000000000000000, 0.00000000000000000000, 4043.07682421080700000000, 4009.74349169257990000000, 4124.10246325511250000000, 4151.79477027025500000000, 3964.10246716762280000000, 4229.23066581259810000000, 4177.94861578455680000000, 4256.92297282774050000000, 4461.53835243962750000000, 4311.79476635774520000000, 3926.66657064715220000000, 4124.10246325511250000000, 4042.56400371052680000000, 3838.97426509920110000000, 0.00000000000000000000, 0.00000000000000000000, 0.00000000000000000000, 0.00000000000000000000, 0.00000000000000000000, 0.00000000000000000000, 0.00000000000000000000, 0.00000000000000000000, 0.00000000000000000000, 0.00000000000000000000, 0.00000000000000000000, 0.00000000000000000000, 0.00000000000000000000, 0.00000000000000000000, 0.00000000000000000000, 1.00000000000000000000, 1.00000000000000000000, 1670.00000000000000000000, 1677.00000000000000000000, 0.00000000000000000000
102.00000000000000000000, 0.00000000000000000000, 4043.07682421080700000000, 4009.74349169257990000000, 4117.94861725174810000000, 4152.30759077053610000000, 3963.07682616706190000000, 4228.20502481203770000000, 4179.99989778567850000000, 4256.41015232746030000000, 4460.51271143906620000000, 4312.30758685802630000000, 3928.71785264827390000000, 4121.02554025343030000000, 4042.05118321024610000000, 3836.92298309807940000000, 0.00000000000000000000, 0.00000000000000000000, 0.00000000000000000000, 0.00000000000000000000, 0.00000000000000000000, 0.00000000000000000000, 0.00000000000000000000, 0.00000000000000000000, 0.00000000000000000000, 0.00000000000000000000, 0.00000000000000000000, 0.00000000000000000000, 0.00000000000000000000, 0.00000000000000000000, 0.00000000000000000000, 1.00000000000000000000, 1.00000000000000000000, 1670.00000000000000000000, 1677.00000000000000000000, 0.00000000000000000000
103.00000000000000000000, 0.00000000000000000000, 4047.17938821305050000000, 4008.20503019173880000000, 4111.79477124838290000000, 4150.76912926969450000000, 3966.15374916874450000000, 4226.66656331119610000000, 4176.41015428371520000000, 4255.38451132689990000000, 4464.10245494102950000000, 4313.33322785858670000000, 3927.17939114743290000000, 4122.56400175427190000000, 4042.05118321024610000000, 3838.46144459892050000000, 0.00000000000000000000, 0.00000000000000000000, 0.00000000000000000000, 0.00000000000000000000, 0.00000000000000000000, 0.00000000000000000000, 0.00000000000000000000, 0.00000000000000000000, 0.00000000000000000000, 0.00000000000000000000, 0.00000000000000000000, 0.00000000000000000000, 0.00000000000000000000, 0.00000000000000000000, 0.00000000000000000000, 1.00000000000000000000, 1.00000000000000000000, 1670.00000000000000000000, 1678.00000000000000000000, 0.00000000000000000000
104.00000000000000000000, 0.00000000000000000000, 4044.10246521136790000000, 4009.23067119229930000000, 4114.87169425006500000000, 4150.76912926969450000000, 3964.61528766790340000000, 4225.12810181035550000000, 4175.89733378343500000000, 4256.41015232746030000000, 4464.10245494102950000000, 4313.84604835886690000000, 3928.20503214799370000000, 4123.58964275483230000000, 4042.56400371052680000000, 3841.02554710032290000000, 0.00000000000000000000, 0.00000000000000000000, 0.00000000000000000000, 0.00000000000000000000, 0.00000000000000000000, 0.00000000000000000000, 0.00000000000000000000, 0.00000000000000000000, 0.00000000000000000000, 0.00000000000000000000, 0.00000000000000000000, 0.00000000000000000000, 0.00000000000000000000, 0.00000000000000000000, 0.00000000000000000000, 1.00000000000000000000, 1.00000000000000000000, 1671.00000000000000000000, 1678.00000000000000000000, 0.00000000000000000000
105.00000000000000000000, 0.00000000000000000000, 4040.51272170940500000000, 4011.28195319342100000000, 4118.46143775202840000000, 4151.28194976997470000000, 3963.58964666734250000000, 4226.15374281091590000000, 4177.94861578455680000000, 4257.94861382830190000000, 4461.02553193934640000000, 4315.38450985970850000000, 3929.74349364883480000000, 4121.53836075371050000000, 4045.64092671220900000000, 3839.48708559948140000000, 0.00000000000000000000, 0.00000000000000000000, 0.00000000000000000000, 0.00000000000000000000, 0.00000000000000000000, 0.00000000000000000000, 0.00000000000000000000, 0.00000000000000000000, 0.00000000000000000000, 0.00000000000000000000, 0.00000000000000000000, 0.00000000000000000000, 0.00000000000000000000, 0.00000000000000000000, 0.00000000000000000000, 1.00000000000000000000, 1.00000000000000000000, 1670.00000000000000000000, 1680.00000000000000000000, 0.00000000000000000000
106.00000000000000000000, 0.00000000000000000000, 4045.12810621192880000000, 4011.79477369370170000000, 4113.84605324950460000000, 4149.74348826913410000000, 3966.66656966902470000000, 4227.69220431175750000000, 4177.43579528427650000000, 4258.46143432858210000000, 4461.02553193934640000000, 4315.38450985970850000000, 3929.23067314855460000000, 4121.02554025343030000000, 4046.66656771276980000000, 3837.43580359836010000000, 0.00000000000000000000, 0.00000000000000000000, 0.00000000000000000000, 0.00000000000000000000, 0.00000000000000000000, 0.00000000000000000000, 0.00000000000000000000, 0.00000000000000000000, 0.00000000000000000000, 0.00000000000000000000, 0.00000000000000000000, 0.00000000000000000000, 0.00000000000000000000, 0.00000000000000000000, 0.00000000000000000000, 1.00000000000000000000, 1.00000000000000000000, 1671.00000000000000000000, 1680.00000000000000000000, 0.00000000000000000000
107.00000000000000000000, 0.00000000000000000000, 4049.74349071445250000000, 4012.82041469426260000000, 4108.71784824670070000000, 4149.74348826913410000000, 3968.20503116986630000000, 4228.20502481203770000000, 4177.94861578455680000000, 4259.99989582942360000000, 4463.58963444074930000000, 4314.87168935942830000000, 3928.71785264827390000000, 4120.51271975315010000000, 4045.12810621192880000000, 3839.48708559948140000000, 0.00000000000000000000, 0.00000000000000000000, 0.00000000000000000000, 0.00000000000000000000, 0.00000000000000000000, 0.00000000000000000000, 0.00000000000000000000, 0.00000000000000000000, 0.00000000000000000000, 0.00000000000000000000, 0.00000000000000000000, 0.00000000000000000000, 0.00000000000000000000, 0.00000000000000000000, 0.00000000000000000000, 1.00000000000000000000, 1.00000000000000000000, 1672.00000000000000000000, 1679.00000000000000000000, 0.00000000000000000000
108.00000000000000000000, 0.00000000000000000000, 4045.12810621192880000000, 4013.84605569482350000000, 4105.64092524501760000000, 4151.28194976997470000000, 3967.69221066958560000000, 4229.74348631287920000000, 4179.48707728539830000000, 4261.02553682998400000000, 4464.10245494102950000000, 4314.87168935942830000000, 3928.20503214799370000000, 4119.99989925286990000000, 4047.17938821305050000000, 3841.02554710032290000000, 0.00000000000000000000, 0.00000000000000000000, 0.00000000000000000000, 0.00000000000000000000, 0.00000000000000000000, 0.00000000000000000000, 0.00000000000000000000, 0.00000000000000000000, 0.00000000000000000000, 0.00000000000000000000, 0.00000000000000000000, 0.00000000000000000000, 0.00000000000000000000, 0.00000000000000000000, 0.00000000000000000000, 1.00000000000000000000, 1.00000000000000000000, 1671.00000000000000000000, 1682.00000000000000000000, 0.00000000000000000000
109.00000000000000000000, 0.00000000000000000000, 4041.02554220968520000000, 4013.84605569482350000000, 4106.15374574529870000000, 4152.30759077053610000000, 3968.20503116986630000000, 4230.25630681315940000000, 4178.97425678511720000000, 4261.02553682998400000000, 4461.53835243962750000000, 4315.89733035998870000000, 3927.69221164771310000000, 4119.99989925286990000000, 4050.76913171501340000000, 3839.48708559948140000000, 0.00000000000000000000, 0.00000000000000000000, 0.00000000000000000000, 0.00000000000000000000, 0.00000000000000000000, 0.00000000000000000000, 0.00000000000000000000, 0.00000000000000000000, 0.00000000000000000000, 0.00000000000000000000, 0.00000000000000000000, 0.00000000000000000000, 0.00000000000000000000, 0.00000000000000000000, 0.00000000000000000000, 1.00000000000000000000, 1.00000000000000000000, 1673.00000000000000000000, 1681.00000000000000000000, 0.00000000000000000000
110.00000000000000000000, 0.00000000000000000000, 4038.97426020856350000000, 4014.35887619510370000000, 4105.64092524501760000000, 4151.79477027025500000000, 3970.76913367126830000000, 4227.69220431175750000000, 4177.94861578455680000000, 4260.51271632970380000000, 4458.46142943794440000000, 4315.89733035998870000000, 3929.23067314855460000000, 4119.48707875258880000000, 4049.74349071445250000000, 3837.94862409864030000000, 0.00000000000000000000, 0.00000000000000000000, 0.00000000000000000000, 0.00000000000000000000, 0.00000000000000000000, 0.00000000000000000000, 0.00000000000000000000, 0.00000000000000000000, 0.00000000000000000000, 0.00000000000000000000, 0.00000000000000000000, 0.00000000000000000000, 0.00000000000000000000, 0.00000000000000000000, 0.00000000000000000000, 1.00000000000000000000, 1.00000000000000000000, 1672.00000000000000000000, 1683.00000000000000000000, 0.00000000000000000000
111.00000000000000000000, 0.00000000000000000000, 4039.48708070884410000000, 4015.38451719566460000000, 4104.61528424445710000000, 4151.79477027025500000000, 3970.76913367126830000000, 4226.66656331119610000000, 4176.92297478399540000000, 4258.97425482886230000000, 4459.99989093878590000000, 4317.94861236111050000000, 3929.23067314855460000000, 4117.43579675146700000000, 4046.66656771276980000000, 3838.97426509920110000000, 0.00000000000000000000, 0.00000000000000000000, 0.00000000000000000000, 0.00000000000000000000, 0.00000000000000000000, 0.00000000000000000000, 0.00000000000000000000, 0.00000000000000000000, 0.00000000000000000000, 0.00000000000000000000, 0.00000000000000000000, 0.00000000000000000000, 0.00000000000000000000, 0.00000000000000000000, 0.00000000000000000000, 1.00000000000000000000, 1.00000000000000000000, 1673.00000000000000000000, 1684.00000000000000000000, 0.00000000000000000000
112.00000000000000000000, 0.00000000000000000000, 4041.53836270996590000000, 4014.35887619510370000000, 4108.71784824670070000000, 4151.79477027025500000000, 3970.76913367126830000000, 4226.66656331119610000000, 4176.92297478399540000000, 4257.94861382830190000000, 4462.05117293990770000000, 4319.99989436223220000000, 3927.17939114743290000000, 4118.97425825230860000000, 4044.61528571164810000000, 3839.48708559948140000000, 0.00000000000000000000, 0.00000000000000000000, 0.00000000000000000000, 0.00000000000000000000, 0.00000000000000000000, 0.00000000000000000000, 0.00000000000000000000, 0.00000000000000000000, 0.00000000000000000000, 0.00000000000000000000, 0.00000000000000000000, 0.00000000000000000000, 0.00000000000000000000, 0.00000000000000000000, 0.00000000000000000000, 1.00000000000000000000, 1.00000000000000000000, 1672.00000000000000000000, 1684.00000000000000000000, 0.00000000000000000000
113.00000000000000000000, 0.00000000000000000000, 4043.07682421080700000000, 4012.30759419398190000000, 4118.46143775202840000000, 4151.79477027025500000000, 3971.79477467182910000000, 4226.15374281091590000000, 4177.43579528427650000000, 4256.41015232746030000000, 4458.97424993822550000000, 4315.38450985970850000000, 3926.66657064715220000000, 4123.07682225455210000000, 4044.61528571164810000000, 3837.94862409864030000000, 0.00000000000000000000, 0.00000000000000000000, 0.00000000000000000000, 0.00000000000000000000, 0.00000000000000000000, 0.00000000000000000000, 0.00000000000000000000, 0.00000000000000000000, 0.00000000000000000000, 0.00000000000000000000, 0.00000000000000000000, 0.00000000000000000000, 0.00000000000000000000, 0.00000000000000000000, 0.00000000000000000000, 1.00000000000000000000, 1.00000000000000000000, 1673.00000000000000000000, 1685.00000000000000000000, 0.00000000000000000000
114.00000000000000000000, 0.00000000000000000000, 4043.07682421080700000000, 4011.79477369370170000000, 4121.53836075371050000000, 4151.79477027025500000000, 3969.23067217042720000000, 4225.64092231063570000000, 4177.94861578455680000000, 4255.89733182718010000000, 4458.46142943794440000000, 4310.25630485690450000000, 3926.66657064715220000000, 4125.12810425567390000000, 4043.07682421080700000000, 3837.43580359836010000000, 0.00000000000000000000, 0.00000000000000000000, 0.00000000000000000000, 0.00000000000000000000, 0.00000000000000000000, 0.00000000000000000000, 0.00000000000000000000, 0.00000000000000000000, 0.00000000000000000000, 0.00000000000000000000, 0.00000000000000000000, 0.00000000000000000000, 0.00000000000000000000, 0.00000000000000000000, 0.00000000000000000000, 1.00000000000000000000, 1.00000000000000000000, 1673.00000000000000000000, 1684.00000000000000000000, 0.00000000000000000000
115.00000000000000000000, 0.00000000000000000000, 4040.51272170940500000000, 4011.79477369370170000000, 4118.97425825230860000000, 4151.79477027025500000000, 3966.66656966902470000000, 4224.61528131007440000000, 4175.89733378343500000000, 4256.41015232746030000000, 4459.99989093878590000000, 4311.79476635774520000000, 3925.12810914631110000000, 4126.15374525623430000000, 4038.97426020856350000000, 3837.94862409864030000000, 0.00000000000000000000, 0.00000000000000000000, 0.00000000000000000000, 0.00000000000000000000, 0.00000000000000000000, 0.00000000000000000000, 0.00000000000000000000, 0.00000000000000000000, 0.00000000000000000000, 0.00000000000000000000, 0.00000000000000000000, 0.00000000000000000000, 0.00000000000000000000, 0.00000000000000000000, 0.00000000000000000000, 1.00000000000000000000, 1.00000000000000000000, 1672.00000000000000000000, 1685.00000000000000000000, 0.00000000000000000000
116.00000000000000000000, 0.00000000000000000000, 4040.51272170940500000000, 4010.76913269314080000000, 4118.97425825230860000000, 4151.79477027025500000000, 3965.64092866846390000000, 4225.12810181035550000000, 4174.35887228259340000000, 4254.87169082661880000000, 4458.46142943794440000000, 4314.87168935942830000000, 3925.64092964659180000000, 4126.15374525623430000000, 4038.46143970828330000000, 3835.89734209751850000000, 0.00000000000000000000, 0.00000000000000000000, 0.00000000000000000000, 0.00000000000000000000, 0.00000000000000000000, 0.00000000000000000000, 0.00000000000000000000, 0.00000000000000000000, 0.00000000000000000000, 0.00000000000000000000, 0.00000000000000000000, 0.00000000000000000000, 0.00000000000000000000, 0.00000000000000000000, 0.00000000000000000000, 1.00000000000000000000, 1.00000000000000000000, 1672.00000000000000000000, 1684.00000000000000000000, 0.00000000000000000000
117.00000000000000000000, 0.00000000000000000000, 4044.10246521136790000000, 4008.71785069201910000000, 4120.51271975315010000000, 4151.79477027025500000000, 3963.58964666734250000000, 4226.15374281091590000000, 4175.38451328315480000000, 4253.84604982605830000000, 4456.41014743682260000000, 4310.25630485690450000000, 3928.71785264827390000000, 4125.64092475595410000000, 4042.05118321024610000000, 3835.38452159723830000000, 0.00000000000000000000, 0.00000000000000000000, 0.00000000000000000000, 0.00000000000000000000, 0.00000000000000000000, 0.00000000000000000000, 0.00000000000000000000, 0.00000000000000000000, 0.00000000000000000000, 0.00000000000000000000, 0.00000000000000000000, 0.00000000000000000000, 0.00000000000000000000, 0.00000000000000000000, 0.00000000000000000000, 1.00000000000000000000, 1.00000000000000000000, 1672.00000000000000000000, 1685.00000000000000000000, 0.00000000000000000000
118.00000000000000000000, 0.00000000000000000000, 4045.64092671220900000000, 4007.69220969145820000000, 4118.97425825230860000000, 4151.79477027025500000000, 3962.56400566678170000000, 4228.20502481203770000000, 4176.92297478399540000000, 4253.84604982605830000000, 4457.94860893766420000000, 4308.20502285578280000000, 3928.20503214799370000000, 4126.15374525623430000000, 4041.02554220968520000000, 3838.46144459892050000000, 0.00000000000000000000, 0.00000000000000000000, 0.00000000000000000000, 0.00000000000000000000, 0.00000000000000000000, 0.00000000000000000000, 0.00000000000000000000, 0.00000000000000000000, 0.00000000000000000000, 0.00000000000000000000, 0.00000000000000000000, 0.00000000000000000000, 0.00000000000000000000, 0.00000000000000000000, 0.00000000000000000000, 1.00000000000000000000, 1.00000000000000000000, 1671.00000000000000000000, 1684.00000000000000000000, 0.00000000000000000000
119.00000000000000000000, 0.00000000000000000000, 4042.56400371052680000000, 4009.23067119229930000000, 4118.46143775202840000000, 4151.79477027025500000000, 3962.56400566678170000000, 4228.20502481203770000000, 4178.46143628483700000000, 4252.82040882549790000000, 4459.48707043850570000000, 4312.30758685802630000000, 3924.10246814575020000000, 4128.20502725735610000000, 4038.46143970828330000000, 3839.99990609976200000000, 0.00000000000000000000, 0.00000000000000000000, 0.00000000000000000000, 0.00000000000000000000, 0.00000000000000000000, 0.00000000000000000000, 0.00000000000000000000, 0.00000000000000000000, 0.00000000000000000000, 0.00000000000000000000, 0.00000000000000000000, 0.00000000000000000000, 0.00000000000000000000, 0.00000000000000000000, 0.00000000000000000000, 1.00000000000000000000, 1.00000000000000000000, 1670.00000000000000000000, 1684.00000000000000000000, 0.00000000000000000000
120.00000000000000000000, 0.00000000000000000000, 4041.53836270996590000000, 4008.20503019173880000000, 4122.56400175427190000000, 4151.79477027025500000000, 3963.58964666734250000000, 4228.20502481203770000000, 4178.46143628483700000000, 4254.87169082661880000000, 4459.48707043850570000000, 4311.79476635774520000000, 3923.58964764547000000000, 4127.17938625679560000000, 4041.02554220968520000000, 3837.94862409864030000000, 0.00000000000000000000, 0.00000000000000000000, 0.00000000000000000000, 0.00000000000000000000, 0.00000000000000000000, 0.00000000000000000000, 0.00000000000000000000, 0.00000000000000000000, 0.00000000000000000000, 0.00000000000000000000, 0.00000000000000000000, 0.00000000000000000000, 0.00000000000000000000, 0.00000000000000000000, 0.00000000000000000000, 1.00000000000000000000, 1.00000000000000000000, 1672.00000000000000000000, 1683.00000000000000000000, 0.00000000000000000000
121.00000000000000000000, 0.00000000000000000000, 4044.61528571164810000000, 4007.69220969145820000000, 4121.02554025343030000000, 4151.79477027025500000000, 3962.56400566678170000000, 4228.20502481203770000000, 4177.43579528427650000000, 4257.94861382830190000000, 4460.51271143906620000000, 4307.69220235550260000000, 3926.15375014687200000000, 4124.10246325511250000000, 4044.61528571164810000000, 3836.41016259779920000000, 0.00000000000000000000, 0.00000000000000000000, 0.00000000000000000000, 0.00000000000000000000, 0.00000000000000000000, 0.00000000000000000000, 0.00000000000000000000, 0.00000000000000000000, 0.00000000000000000000, 0.00000000000000000000, 0.00000000000000000000, 0.00000000000000000000, 0.00000000000000000000, 0.00000000000000000000, 0.00000000000000000000, 1.00000000000000000000, 1.00000000000000000000, 1669.00000000000000000000, 1685.00000000000000000000, 0.00000000000000000000
122.00000000000000000000, 0.00000000000000000000, 4046.15374721248960000000, 4011.79477369370170000000, 4114.35887374978480000000, 4151.79477027025500000000, 3963.58964666734250000000, 4228.71784531231790000000, 4175.89733378343500000000, 4257.94861382830190000000, 4461.02553193934640000000, 4311.28194585746500000000, 3926.66657064715220000000, 4124.61528375539360000000, 4043.07682421080700000000, 3838.97426509920110000000, 0.00000000000000000000, 0.00000000000000000000, 0.00000000000000000000, 0.00000000000000000000, 0.00000000000000000000, 0.00000000000000000000, 0.00000000000000000000, 0.00000000000000000000, 0.00000000000000000000, 0.00000000000000000000, 0.00000000000000000000, 0.00000000000000000000, 0.00000000000000000000, 0.00000000000000000000, 0.00000000000000000000, 1.00000000000000000000, 1.00000000000000000000, 1671.00000000000000000000, 1685.00000000000000000000, 0.00000000000000000000
123.00000000000000000000, 0.00000000000000000000, 4047.69220871333070000000, 4013.84605569482350000000, 4113.84605324950460000000, 4152.30759077053610000000, 3965.64092866846390000000, 4230.25630681315940000000, 4175.38451328315480000000, 4256.41015232746030000000, 4459.48707043850570000000, 4315.38450985970850000000, 3926.15375014687200000000, 4126.15374525623430000000, 4041.53836270996590000000, 3839.99990609976200000000, 0.00000000000000000000, 0.00000000000000000000, 0.00000000000000000000, 0.00000000000000000000, 0.00000000000000000000, 0.00000000000000000000, 0.00000000000000000000, 0.00000000000000000000, 0.00000000000000000000, 0.00000000000000000000, 0.00000000000000000000, 0.00000000000000000000, 0.00000000000000000000, 0.00000000000000000000, 0.00000000000000000000, 1.00000000000000000000, 1.00000000000000000000, 1669.00000000000000000000, 1685.00000000000000000000, 0.00000000000000000000
124.00000000000000000000, 0.00000000000000000000, 4048.71784971389160000000, 4011.28195319342100000000, 4116.92297625118680000000, 4151.28194976997470000000, 3965.64092866846390000000, 4229.23066581259810000000, 4175.89733378343500000000, 4255.38451132689990000000, 4461.02553193934640000000, 4312.82040735830650000000, 3926.66657064715220000000, 4125.12810425567390000000, 4043.58964471108720000000, 3837.94862409864030000000, 0.00000000000000000000, 0.00000000000000000000, 0.00000000000000000000, 0.00000000000000000000, 0.00000000000000000000, 0.00000000000000000000, 0.00000000000000000000, 0.00000000000000000000, 0.00000000000000000000, 0.00000000000000000000, 0.00000000000000000000, 0.00000000000000000000, 0.00000000000000000000, 0.00000000000000000000, 0.00000000000000000000, 1.00000000000000000000, 1.00000000000000000000, 1670.00000000000000000000, 1686.00000000000000000000, 0.00000000000000000000
125.00000000000000000000, 0.00000000000000000000, 4047.17938821305050000000, 4012.30759419398190000000, 4113.33323274922440000000, 4149.74348826913410000000, 3966.66656966902470000000, 4227.69220431175750000000, 4177.43579528427650000000, 4255.38451132689990000000, 4464.10245494102950000000, 4312.82040735830650000000, 3928.71785264827390000000, 4124.61528375539360000000, 4046.15374721248960000000, 3838.97426509920110000000, 0.00000000000000000000, 0.00000000000000000000, 0.00000000000000000000, 0.00000000000000000000, 0.00000000000000000000, 0.00000000000000000000, 0.00000000000000000000, 0.00000000000000000000, 0.00000000000000000000, 0.00000000000000000000, 0.00000000000000000000, 0.00000000000000000000, 0.00000000000000000000, 0.00000000000000000000, 0.00000000000000000000, 1.00000000000000000000, 1.00000000000000000000, 1670.00000000000000000000, 1686.00000000000000000000, 0.00000000000000000000
126.00000000000000000000, 0.00000000000000000000, 4047.17938821305050000000, 4015.38451719566460000000, 4107.69220724613930000000, 4149.74348826913410000000, 3969.23067217042720000000, 4229.74348631287920000000, 4177.94861578455680000000, 4256.92297282774050000000, 4463.07681394046810000000, 4316.41015086026890000000, 3929.74349364883480000000, 4123.07682225455210000000, 4047.17938821305050000000, 3842.05118810088380000000, 0.00000000000000000000, 0.00000000000000000000, 0.00000000000000000000, 0.00000000000000000000, 0.00000000000000000000, 0.00000000000000000000, 0.00000000000000000000, 0.00000000000000000000, 0.00000000000000000000, 0.00000000000000000000, 0.00000000000000000000, 0.00000000000000000000, 0.00000000000000000000, 0.00000000000000000000, 0.00000000000000000000, 1.00000000000000000000, 1.00000000000000000000, 1671.00000000000000000000, 1687.00000000000000000000, 0.00000000000000000000
127.00000000000000000000, 0.00000000000000000000, 4052.82041371613510000000, 4014.87169669538390000000, 4111.28195074810260000000, 4150.76912926969450000000, 3966.66656966902470000000, 4228.20502481203770000000, 4178.46143628483700000000, 4258.97425482886230000000, 4462.56399344018790000000, 4316.92297136055000000000, 3929.23067314855460000000, 4120.51271975315010000000, 4046.15374721248960000000, 3841.02554710032290000000, 0.00000000000000000000, 0.00000000000000000000, 0.00000000000000000000, 0.00000000000000000000, 0.00000000000000000000, 0.00000000000000000000, 0.00000000000000000000, 0.00000000000000000000, 0.00000000000000000000, 0.00000000000000000000, 0.00000000000000000000, 0.00000000000000000000, 0.00000000000000000000, 0.00000000000000000000, 0.00000000000000000000, 1.00000000000000000000, 1.00000000000000000000, 1671.00000000000000000000, 1687.00000000000000000000, 0.00000000000000000000
128.00000000000000000000, 0.00000000000000000000, 4055.38451621753710000000, 4013.84605569482350000000, 4113.33323274922440000000, 4151.79477027025500000000, 3963.58964666734250000000, 4224.61528131007440000000, 4177.94861578455680000000, 4258.97425482886230000000, 4462.05117293990770000000, 4313.33322785858670000000, 3929.74349364883480000000, 4122.05118125399170000000, 4045.64092671220900000000, 3838.46144459892050000000, 0.00000000000000000000, 0.00000000000000000000, 0.00000000000000000000, 0.00000000000000000000, 0.00000000000000000000, 0.00000000000000000000, 0.00000000000000000000, 0.00000000000000000000, 0.00000000000000000000, 0.00000000000000000000, 0.00000000000000000000, 0.00000000000000000000, 0.00000000000000000000, 0.00000000000000000000, 0.00000000000000000000, 1.00000000000000000000, 1.00000000000000000000, 1671.00000000000000000000, 1688.00000000000000000000, 0.00000000000000000000
0.00000000000000000000, 0.00000000000000000000, 4052.82041371613510000000, 4013.33323519454280000000, 4112.82041224894330000000, 4151.79477027025500000000, 3965.12810816818360000000, 4224.10246080979410000000, 4177.43579528427650000000, 4259.48707532914250000000, 4458.97424993822550000000, 4310.76912535718470000000, 3929.23067314855460000000, 4122.56400175427190000000, 4044.61528571164810000000, 3838.97426509920110000000, 0.00000000000000000000, 0.00000000000000000000, 0.00000000000000000000, 0.00000000000000000000, 0.00000000000000000000, 0.00000000000000000000, 0.00000000000000000000, 0.00000000000000000000, 0.00000000000000000000, 0.00000000000000000000, 0.00000000000000000000, 0.00000000000000000000, 0.00000000000000000000, 0.00000000000000000000, 0.00000000000000000000, 1.00000000000000000000, 1.00000000000000000000, 1672.00000000000000000000, 1688.00000000000000000000, 0.00000000000000000000
1.00000000000000000000, 0.00000000000000000000, 4054.87169571725640000000, 4009.74349169257990000000, 4117.43579675146700000000, 4151.79477027025500000000, 3965.64092866846390000000, 4226.15374281091590000000, 4175.89733378343500000000, 4258.97425482886230000000, 4458.97424993822550000000, 4313.33322785858670000000, 3926.15375014687200000000, 4121.53836075371050000000, 4040.51272170940500000000, 3839.48708559948140000000, 0.00000000000000000000, 0.00000000000000000000, 0.00000000000000000000, 0.00000000000000000000, 0.00000000000000000000, 0.00000000000000000000, 0.00000000000000000000, 0.00000000000000000000, 0.00000000000000000000, 0.00000000000000000000, 0.00000000000000000000, 0.00000000000000000000, 0.00000000000000000000, 0.00000000000000000000, 0.00000000000000000000, 1.00000000000000000000, 1.00000000000000000000, 1673.00000000000000000000, 1690.00000000000000000000, 0.00000000000000000000
2.00000000000000000000, 0.00000000000000000000, 4056.41015721809800000000, 4008.20503019173880000000, 4121.53836075371050000000, 4151.79477027025500000000, 3965.12810816818360000000, 4222.56399930895260000000, 4173.84605178231320000000, 4254.87169082661880000000, 4457.43578843738400000000, 4311.28194585746500000000, 3925.12810914631110000000, 4124.61528375539360000000, 4038.46143970828330000000, 3837.94862409864030000000, 0.00000000000000000000, 0.00000000000000000000, 0.00000000000000000000, 0.00000000000000000000, 0.00000000000000000000, 0.00000000000000000000, 0.00000000000000000000, 0.00000000000000000000, 0.00000000000000000000, 0.00000000000000000000, 0.00000000000000000000, 0.00000000000000000000, 0.00000000000000000000, 0.00000000000000000000, 0.00000000000000000000, 1.00000000000000000000, 1.00000000000000000000, 1674.00000000000000000000, 1689.00000000000000000000, 0.00000000000000000000
3.00000000000000000000, 0.00000000000000000000, 4055.38451621753710000000, 4006.66656869089730000000, 4120.51271975315010000000, 4151.79477027025500000000, 3963.07682616706190000000, 4222.05117880867240000000, 4171.79476978119150000000, 4253.33322932577810000000, 4452.30758343458000000000, 4305.64092035438080000000, 3926.66657064715220000000, 4128.20502725735610000000, 4037.43579870772240000000, 3839.48708559948140000000, 0.00000000000000000000, 0.00000000000000000000, 0.00000000000000000000, 0.00000000000000000000, 0.00000000000000000000, 0.00000000000000000000, 0.00000000000000000000, 0.00000000000000000000, 0.00000000000000000000, 0.00000000000000000000, 0.00000000000000000000, 0.00000000000000000000, 0.00000000000000000000, 0.00000000000000000000, 0.00000000000000000000, 1.00000000000000000000, 1.00000000000000000000, 1676.00000000000000000000, 1689.00000000000000000000, 0.00000000000000000000
4.00000000000000000000, 0.00000000000000000000, 4058.97425971950000000000, 4003.07682518893440000000, 4123.07682225455210000000, 4152.30759077053610000000, 3959.48708266509900000000, 4225.12810181035550000000, 4171.79476978119150000000, 4252.82040882549790000000, 4451.79476293429890000000, 4303.07681785297880000000, 3923.58964764547000000000, 4128.20502725735610000000, 4032.82041420519860000000, 3840.51272660004220000000, 0.00000000000000000000, 0.00000000000000000000, 0.00000000000000000000, 0.00000000000000000000, 0.00000000000000000000, 0.00000000000000000000, 0.00000000000000000000, 0.00000000000000000000, 0.00000000000000000000, 0.00000000000000000000, 0.00000000000000000000, 0.00000000000000000000, 0.00000000000000000000, 0.00000000000000000000, 0.00000000000000000000, 1.00000000000000000000, 1.00000000000000000000, 1675.00000000000000000000, 1687.00000000000000000000, 0.00000000000000000000
5.00000000000000000000, 0.00000000000000000000, 4061.02554172062170000000, 4002.05118418837360000000, 4129.23066825791740000000, 4152.82041127081630000000, 3958.97426216481880000000, 4226.15374281091590000000, 4171.79476978119150000000, 4245.12810132129110000000, 4453.84604493542070000000, 4304.10245885353920000000, 3919.99990414350710000000, 4129.74348875819760000000, 4030.25631170379670000000, 3838.97426509920110000000, 0.00000000000000000000, 0.00000000000000000000, 0.00000000000000000000, 0.00000000000000000000, 0.00000000000000000000, 0.00000000000000000000, 0.00000000000000000000, 0.00000000000000000000, 0.00000000000000000000, 0.00000000000000000000, 0.00000000000000000000, 0.00000000000000000000, 0.00000000000000000000, 0.00000000000000000000, 0.00000000000000000000, 1.00000000000000000000, 1.00000000000000000000, 1676.00000000000000000000, 1687.00000000000000000000, 0.00000000000000000000
6.00000000000000000000, 0.00000000000000000000, 4058.46143921921930000000, 4001.53836368809330000000, 4128.20502725735610000000, 4152.82041127081630000000, 3960.51272366565990000000, 4225.12810181035550000000, 4171.79476978119150000000, 4241.02553731904750000000, 4452.82040393486020000000, 4304.10245885353920000000, 3921.02554514406760000000, 4131.28195025903910000000, 4030.76913220407690000000, 3836.41016259779920000000, 0.00000000000000000000, 0.00000000000000000000, 0.00000000000000000000, 0.00000000000000000000, 0.00000000000000000000, 0.00000000000000000000, 0.00000000000000000000, 0.00000000000000000000, 0.00000000000000000000, 0.00000000000000000000, 0.00000000000000000000, 0.00000000000000000000, 0.00000000000000000000, 0.00000000000000000000, 0.00000000000000000000, 1.00000000000000000000, 1.00000000000000000000, 1676.00000000000000000000, 1685.00000000000000000000, 0.00000000000000000000
7.00000000000000000000, 0.00000000000000000000, 4058.97425971950000000000, 3996.41015868528890000000, 4127.17938625679560000000, 4152.30759077053610000000, 3958.97426216481880000000, 4224.61528131007440000000, 4171.28194928091120000000, 4245.64092182157130000000, 4453.33322443514040000000, 4303.07681785297880000000, 3923.07682714518930000000, 4131.28195025903910000000, 4029.74349120351600000000, 3836.41016259779920000000, 0.00000000000000000000, 0.00000000000000000000, 0.00000000000000000000, 0.00000000000000000000, 0.00000000000000000000, 0.00000000000000000000, 0.00000000000000000000, 0.00000000000000000000, 0.00000000000000000000, 0.00000000000000000000, 0.00000000000000000000, 0.00000000000000000000, 0.00000000000000000000, 0.00000000000000000000, 0.00000000000000000000, 1.00000000000000000000, 1.00000000000000000000, 1676.00000000000000000000, 1686.00000000000000000000, 0.00000000000000000000
8.00000000000000000000, 0.00000000000000000000, 4062.56400322146280000000, 3995.38451768472810000000, 4129.74348875819760000000, 4152.82041127081630000000, 3957.94862116425790000000, 4225.12810181035550000000, 4167.69220577894790000000, 4249.74348582381480000000, 4455.38450643626220000000, 4303.58963835325900000000, 3922.05118614462840000000, 4129.74348875819760000000, 4031.79477320463770000000, 3836.92298309807940000000, 0.00000000000000000000, 0.00000000000000000000, 0.00000000000000000000, 0.00000000000000000000, 0.00000000000000000000, 0.00000000000000000000, 0.00000000000000000000, 0.00000000000000000000, 0.00000000000000000000, 0.00000000000000000000, 0.00000000000000000000, 0.00000000000000000000, 0.00000000000000000000, 0.00000000000000000000, 0.00000000000000000000, 1.00000000000000000000, 1.00000000000000000000, 1676.00000000000000000000, 1684.00000000000000000000, 0.00000000000000000000
9.00000000000000000000, 0.00000000000000000000, 4058.97425971950000000000, 3999.48708168697160000000, 4131.79477075931940000000, 4152.82041127081630000000, 3958.97426216481880000000, 4226.66656331119610000000, 4168.71784677950930000000, 4249.23066532353460000000, 4454.35886543570180000000, 4305.12809985409970000000, 3921.53836564434820000000, 4128.71784775763630000000, 4035.89733720688130000000, 3836.41016259779920000000, 0.00000000000000000000, 0.00000000000000000000, 0.00000000000000000000, 0.00000000000000000000, 0.00000000000000000000, 0.00000000000000000000, 0.00000000000000000000, 0.00000000000000000000, 0.00000000000000000000, 0.00000000000000000000, 0.00000000000000000000, 0.00000000000000000000, 0.00000000000000000000, 0.00000000000000000000, 0.00000000000000000000, 1.00000000000000000000, 1.00000000000000000000, 1676.00000000000000000000, 1683.00000000000000000000, 0.00000000000000000000
10.00000000000000000000, 0.00000000000000000000, 4050.25631121473270000000, 3997.94862018613050000000, 4132.30759125959960000000, 4152.82041127081630000000, 3958.97426216481880000000, 4227.69220431175750000000, 4173.84605178231320000000, 4250.25630632409500000000, 4455.89732693654240000000, 4306.66656135494120000000, 3922.56400664490910000000, 4128.20502725735610000000, 4036.92297820744220000000, 3835.89734209751850000000, 0.00000000000000000000, 0.00000000000000000000, 0.00000000000000000000, 0.00000000000000000000, 0.00000000000000000000, 0.00000000000000000000, 0.00000000000000000000, 0.00000000000000000000, 0.00000000000000000000, 0.00000000000000000000, 0.00000000000000000000, 0.00000000000000000000, 0.00000000000000000000, 0.00000000000000000000, 0.00000000000000000000, 1.00000000000000000000, 1.00000000000000000000, 1676.00000000000000000000, 1681.00000000000000000000, 0.00000000000000000000
11.00000000000000000000, 0.00000000000000000000, 4048.20502921361140000000, 3998.46144068641070000000, 4126.15374525623430000000, 4152.82041127081630000000, 3959.48708266509900000000, 4227.17938381147630000000, 4174.87169278287460000000, 4252.82040882549790000000, 4459.99989093878590000000, 4307.17938185522140000000, 3924.61528864603090000000, 4128.20502725735610000000, 4039.99990120912430000000, 3838.97426509920110000000, 0.00000000000000000000, 0.00000000000000000000, 0.00000000000000000000, 0.00000000000000000000, 0.00000000000000000000, 0.00000000000000000000, 0.00000000000000000000, 0.00000000000000000000, 0.00000000000000000000, 0.00000000000000000000, 0.00000000000000000000, 0.00000000000000000000, 0.00000000000000000000, 0.00000000000000000000, 0.00000000000000000000, 1.00000000000000000000, 1.00000000000000000000, 1674.00000000000000000000, 1681.00000000000000000000, 0.00000000000000000000
12.00000000000000000000, 0.00000000000000000000, 4052.82041371613510000000, 4004.61528668977550000000, 4119.48707875258880000000, 4152.82041127081630000000, 3959.99990316537970000000, 4226.66656331119610000000, 4175.38451328315480000000, 4255.38451132689990000000, 4460.51271143906620000000, 4311.28194585746500000000, 3928.71785264827390000000, 4128.71784775763630000000, 4043.07682421080700000000, 3842.56400860116400000000, 0.00000000000000000000, 0.00000000000000000000, 0.00000000000000000000, 0.00000000000000000000, 0.00000000000000000000, 0.00000000000000000000, 0.00000000000000000000, 0.00000000000000000000, 0.00000000000000000000, 0.00000000000000000000, 0.00000000000000000000, 0.00000000000000000000, 0.00000000000000000000, 0.00000000000000000000, 0.00000000000000000000, 1.00000000000000000000, 1.00000000000000000000, 1676.00000000000000000000, 1681.00000000000000000000, 0.00000000000000000000
13.00000000000000000000, 0.00000000000000000000, 4053.33323421641530000000, 4009.23067119229930000000, 4117.94861725174810000000, 4151.79477027025500000000, 3959.99990316537970000000, 4228.20502481203770000000, 4178.97425678511720000000, 4258.97425482886230000000, 4459.48707043850570000000, 4314.35886885914720000000, 3930.76913464939570000000, 4125.12810425567390000000, 4044.10246521136790000000, 3842.56400860116400000000, 0.00000000000000000000, 0.00000000000000000000, 0.00000000000000000000, 0.00000000000000000000, 0.00000000000000000000, 0.00000000000000000000, 0.00000000000000000000, 0.00000000000000000000, 0.00000000000000000000, 0.00000000000000000000, 0.00000000000000000000, 0.00000000000000000000, 0.00000000000000000000, 0.00000000000000000000, 0.00000000000000000000, 1.00000000000000000000, 1.00000000000000000000, 1675.00000000000000000000, 1679.00000000000000000000, 0.00000000000000000000
14.00000000000000000000, 0.00000000000000000000, 4050.76913171501340000000, 4012.30759419398190000000, 4114.35887374978480000000, 4150.25630876941430000000, 3963.07682616706190000000, 4227.17938381147630000000, 4179.48707728539830000000, 4263.07681883110580000000, 4465.64091644187010000000, 4316.41015086026890000000, 3933.33323715079770000000, 4119.48707875258880000000, 4047.69220871333070000000, 3843.58964960172490000000, 0.00000000000000000000, 0.00000000000000000000, 0.00000000000000000000, 0.00000000000000000000, 0.00000000000000000000, 0.00000000000000000000, 0.00000000000000000000, 0.00000000000000000000, 0.00000000000000000000, 0.00000000000000000000, 0.00000000000000000000, 0.00000000000000000000, 0.00000000000000000000, 0.00000000000000000000, 0.00000000000000000000, 1.00000000000000000000, 1.00000000000000000000, 1675.00000000000000000000, 1681.00000000000000000000, 0.00000000000000000000
15.00000000000000000000, 0.00000000000000000000, 4048.20502921361140000000, 4014.35887619510370000000, 4106.66656624557890000000, 4149.74348826913410000000, 3968.71785167014650000000, 4229.74348631287920000000, 4177.94861578455680000000, 4266.15374183278800000000, 4473.33322394607690000000, 4321.53835586307380000000, 3935.89733965219970000000, 4119.48707875258880000000, 4055.89733671781730000000, 3844.61529060228580000000, 0.00000000000000000000, 0.00000000000000000000, 0.00000000000000000000, 0.00000000000000000000, 0.00000000000000000000, 0.00000000000000000000, 0.00000000000000000000, 0.00000000000000000000, 0.00000000000000000000, 0.00000000000000000000, 0.00000000000000000000, 0.00000000000000000000, 0.00000000000000000000, 0.00000000000000000000, 0.00000000000000000000, 1.00000000000000000000, 1.00000000000000000000, 1675.00000000000000000000, 1680.00000000000000000000, 0.00000000000000000000
16.00000000000000000000, 0.00000000000000000000, 4044.61528571164810000000, 4015.38451719566460000000, 4105.64092524501760000000, 4150.25630876941430000000, 3973.33323617267020000000, 4234.35887081540300000000, 4180.51271828595870000000, 4263.58963933138600000000, 4471.79476244523540000000, 4321.53835586307380000000, 3938.97426265388230000000, 4122.56400175427190000000, 4058.46143921921930000000, 3844.61529060228580000000, 0.00000000000000000000, 0.00000000000000000000, 0.00000000000000000000, 0.00000000000000000000, 0.00000000000000000000, 0.00000000000000000000, 0.00000000000000000000, 0.00000000000000000000, 0.00000000000000000000, 0.00000000000000000000, 0.00000000000000000000, 0.00000000000000000000, 0.00000000000000000000, 0.00000000000000000000, 0.00000000000000000000, 1.00000000000000000000, 1.00000000000000000000, 1675.00000000000000000000, 1681.00000000000000000000, 0.00000000000000000000
17.00000000000000000000, 0.00000000000000000000, 4041.02554220968520000000, 4015.38451719566460000000, 4108.71784824670070000000, 4150.76912926969450000000, 3970.76913367126830000000, 4230.76912731343960000000, 4181.02553878623890000000, 4260.51271632970380000000, 4465.12809594158990000000, 4317.94861236111050000000, 3938.97426265388230000000, 4119.48707875258880000000, 4051.79477271557430000000, 3842.56400860116400000000, 0.00000000000000000000, 0.00000000000000000000, 0.00000000000000000000, 0.00000000000000000000, 0.00000000000000000000, 0.00000000000000000000, 0.00000000000000000000, 0.00000000000000000000, 0.00000000000000000000, 0.00000000000000000000, 0.00000000000000000000, 0.00000000000000000000, 0.00000000000000000000, 0.00000000000000000000, 0.00000000000000000000, 1.00000000000000000000, 1.00000000000000000000, 1676.00000000000000000000, 1681.00000000000000000000, 0.00000000000000000000
18.00000000000000000000, 0.00000000000000000000, 4040.51272170940500000000, 4013.84605569482350000000, 4107.17938674585910000000, 4150.76912926969450000000, 3965.12810816818360000000, 4223.58964030951390000000, 4179.99989778567850000000, 4260.51271632970380000000, 4458.97424993822550000000, 4314.87168935942830000000, 3932.30759615023680000000, 4117.94861725174810000000, 4046.66656771276980000000, 3838.97426509920110000000, 0.00000000000000000000, 0.00000000000000000000, 0.00000000000000000000, 0.00000000000000000000, 0.00000000000000000000, 0.00000000000000000000, 0.00000000000000000000, 0.00000000000000000000, 0.00000000000000000000, 0.00000000000000000000, 0.00000000000000000000, 0.00000000000000000000, 0.00000000000000000000, 0.00000000000000000000, 0.00000000000000000000, 1.00000000000000000000, 1.00000000000000000000, 1677.00000000000000000000, 1682.00000000000000000000, 0.00000000000000000000
19.00000000000000000000, 0.00000000000000000000, 4041.02554220968520000000, 4010.76913269314080000000, 4108.71784824670070000000, 4150.76912926969450000000, 3964.10246716762280000000, 4225.12810181035550000000, 4178.97425678511720000000, 4259.48707532914250000000, 4457.94860893766420000000, 4311.79476635774520000000, 3926.66657064715220000000, 4121.53836075371050000000, 4046.15374721248960000000, 3836.92298309807940000000, 0.00000000000000000000, 0.00000000000000000000, 0.00000000000000000000, 0.00000000000000000000, 0.00000000000000000000, 0.00000000000000000000, 0.00000000000000000000, 0.00000000000000000000, 0.00000000000000000000, 0.00000000000000000000, 0.00000000000000000000, 0.00000000000000000000, 0.00000000000000000000, 0.00000000000000000000, 0.00000000000000000000, 1.00000000000000000000, 1.00000000000000000000, 1677.00000000000000000000, 1681.00000000000000000000, 0.00000000000000000000
20.00000000000000000000, 0.00000000000000000000, 4044.10246521136790000000, 4008.20503019173880000000, 4112.82041224894330000000, 4150.76912926969450000000, 3963.58964666734250000000, 4226.15374281091590000000, 4175.89733378343500000000, 4258.97425482886230000000, 4459.48707043850570000000, 4310.76912535718470000000, 3928.71785264827390000000, 4123.58964275483230000000, 4045.64092671220900000000, 3837.94862409864030000000, 0.00000000000000000000, 0.00000000000000000000, 0.00000000000000000000, 0.00000000000000000000, 0.00000000000000000000, 0.00000000000000000000, 0.00000000000000000000, 0.00000000000000000000, 0.00000000000000000000, 0.00000000000000000000, 0.00000000000000000000, 0.00000000000000000000, 0.00000000000000000000, 0.00000000000000000000, 0.00000000000000000000, 1.00000000000000000000, 1.00000000000000000000, 1676.00000000000000000000, 1682.00000000000000000000, 0.00000000000000000000
21.00000000000000000000, 0.00000000000000000000, 4046.66656771276980000000, 4005.64092769033640000000, 4114.35887374978480000000, 4151.28194976997470000000, 3962.05118516650100000000, 4223.58964030951390000000, 4176.92297478399540000000, 4258.97425482886230000000, 4458.97424993822550000000, 4313.33322785858670000000, 3930.25631414911550000000, 4122.05118125399170000000, 4043.58964471108720000000, 3836.92298309807940000000, 0.00000000000000000000, 0.00000000000000000000, 0.00000000000000000000, 0.00000000000000000000, 0.00000000000000000000, 0.00000000000000000000, 0.00000000000000000000, 0.00000000000000000000, 0.00000000000000000000, 0.00000000000000000000, 0.00000000000000000000, 0.00000000000000000000, 0.00000000000000000000, 0.00000000000000000000, 0.00000000000000000000, 1.00000000000000000000, 1.00000000000000000000, 1678.00000000000000000000, 1681.00000000000000000000, 0.00000000000000000000
22.00000000000000000000, 0.00000000000000000000, 4047.17938821305050000000, 4007.17938919117800000000, 4113.84605324950460000000, 4152.30759077053610000000, 3960.51272366565990000000, 4227.69220431175750000000, 4178.46143628483700000000, 4258.46143432858210000000, 4458.46142943794440000000, 4313.33322785858670000000, 3925.12810914631110000000, 4122.56400175427190000000, 4044.61528571164810000000, 3836.41016259779920000000, 0.00000000000000000000, 0.00000000000000000000, 0.00000000000000000000, 0.00000000000000000000, 0.00000000000000000000, 0.00000000000000000000, 0.00000000000000000000, 0.00000000000000000000, 0.00000000000000000000, 0.00000000000000000000, 0.00000000000000000000, 0.00000000000000000000, 0.00000000000000000000, 0.00000000000000000000, 0.00000000000000000000, 1.00000000000000000000, 1.00000000000000000000, 1675.00000000000000000000, 1681.00000000000000000000, 0.00000000000000000000
23.00000000000000000000, 0.00000000000000000000, 4045.12810621192880000000, 4011.28195319342100000000, 4112.30759174866310000000, 4151.28194976997470000000, 3962.05118516650100000000, 4230.25630681315940000000, 4177.43579528427650000000, 4258.97425482886230000000, 4462.56399344018790000000, 4312.30758685802630000000, 3924.10246814575020000000, 4123.07682225455210000000, 4045.12810621192880000000, 3837.43580359836010000000, 0.00000000000000000000, 0.00000000000000000000, 0.00000000000000000000, 0.00000000000000000000, 0.00000000000000000000, 0.00000000000000000000, 0.00000000000000000000, 0.00000000000000000000, 0.00000000000000000000, 0.00000000000000000000, 0.00000000000000000000, 0.00000000000000000000, 0.00000000000000000000, 0.00000000000000000000, 0.00000000000000000000, 1.00000000000000000000, 1.00000000000000000000, 1676.00000000000000000000, 1682.00000000000000000000, 0.00000000000000000000
24.00000000000000000000, 0.00000000000000000000, 4040.51272170940500000000, 4009.74349169257990000000, 4112.30759174866310000000, 4150.25630876941430000000, 3969.23067217042720000000, 4226.66656331119610000000, 4177.43579528427650000000, 4258.46143432858210000000, 4462.56399344018790000000, 4313.84604835886690000000, 3926.15375014687200000000, 4124.61528375539360000000, 4044.10246521136790000000, 3836.92298309807940000000, 0.00000000000000000000, 0.00000000000000000000, 0.00000000000000000000, 0.00000000000000000000, 0.00000000000000000000, 0.00000000000000000000, 0.00000000000000000000, 0.00000000000000000000, 0.00000000000000000000, 0.00000000000000000000, 0.00000000000000000000, 0.00000000000000000000, 0.00000000000000000000, 0.00000000000000000000, 0.00000000000000000000, 1.00000000000000000000, 1.00000000000000000000, 1674.00000000000000000000, 1683.00000000000000000000, 0.00000000000000000000
25.00000000000000000000, 0.00000000000000000000, 4037.94861920800300000000, 4009.23067119229930000000, 4118.46143775202840000000, 4150.76912926969450000000, 3973.33323617267020000000, 4226.15374281091590000000, 4177.94861578455680000000, 4256.41015232746030000000, 4459.48707043850570000000, 4314.35886885914720000000, 3927.17939114743290000000, 4129.23066825791740000000, 4043.07682421080700000000, 3839.48708559948140000000, 0.00000000000000000000, 0.00000000000000000000, 0.00000000000000000000, 0.00000000000000000000, 0.00000000000000000000, 0.00000000000000000000, 0.00000000000000000000, 0.00000000000000000000, 0.00000000000000000000, 0.00000000000000000000, 0.00000000000000000000, 0.00000000000000000000, 0.00000000000000000000, 0.00000000000000000000, 0.00000000000000000000, 1.00000000000000000000, 1.00000000000000000000, 1674.00000000000000000000, 1685.00000000000000000000, 0.00000000000000000000
26.00000000000000000000, 0.00000000000000000000, 4037.94861920800300000000, 4011.28195319342100000000, 4121.02554025343030000000, 4151.79477027025500000000, 3967.17939016930540000000, 4229.23066581259810000000, 4175.89733378343500000000, 4254.35887032633850000000, 4457.43578843738400000000, 4311.79476635774520000000, 3925.64092964659180000000, 4130.76912975875800000000, 4039.99990120912430000000, 3842.05118810088380000000, 0.00000000000000000000, 0.00000000000000000000, 0.00000000000000000000, 0.00000000000000000000, 0.00000000000000000000, 0.00000000000000000000, 0.00000000000000000000, 0.00000000000000000000, 0.00000000000000000000, 0.00000000000000000000, 0.00000000000000000000, 0.00000000000000000000, 0.00000000000000000000, 0.00000000000000000000, 0.00000000000000000000, 1.00000000000000000000, 1.00000000000000000000, 1674.00000000000000000000, 1683.00000000000000000000, 0.00000000000000000000
27.00000000000000000000, 0.00000000000000000000, 4039.48708070884410000000, 4008.20503019173880000000, 4113.33323274922440000000, 4151.79477027025500000000, 3961.53836466622080000000, 4229.74348631287920000000, 4176.41015428371520000000, 4256.41015232746030000000, 4455.38450643626220000000, 4309.74348435662340000000, 3923.58964764547000000000, 4127.69220675707580000000, 4038.46143970828330000000, 3838.46144459892050000000, 0.00000000000000000000, 0.00000000000000000000, 0.00000000000000000000, 0.00000000000000000000, 0.00000000000000000000, 0.00000000000000000000, 0.00000000000000000000, 0.00000000000000000000, 0.00000000000000000000, 0.00000000000000000000, 0.00000000000000000000, 0.00000000000000000000, 0.00000000000000000000, 0.00000000000000000000, 0.00000000000000000000, 1.00000000000000000000, 1.00000000000000000000, 1674.00000000000000000000, 1685.00000000000000000000, 0.00000000000000000000
28.00000000000000000000, 0.00000000000000000000, 4047.69220871333070000000, 4006.66656869089730000000, 4111.28195074810260000000, 4152.30759077053610000000, 3961.53836466622080000000, 4227.17938381147630000000, 4181.02553878623890000000, 4261.53835733026430000000, 4457.43578843738400000000, 4312.82040735830650000000, 3925.12810914631110000000, 4128.20502725735610000000, 4040.51272170940500000000, 3837.94862409864030000000, 0.00000000000000000000, 0.00000000000000000000, 0.00000000000000000000, 0.00000000000000000000, 0.00000000000000000000, 0.00000000000000000000, 0.00000000000000000000, 0.00000000000000000000, 0.00000000000000000000, 0.00000000000000000000, 0.00000000000000000000, 0.00000000000000000000, 0.00000000000000000000, 0.00000000000000000000, 0.00000000000000000000, 1.00000000000000000000, 1.00000000000000000000, 1675.00000000000000000000, 1684.00000000000000000000, 0.00000000000000000000
29.00000000000000000000, 0.00000000000000000000, 4049.23067021417180000000, 4010.25631219286020000000, 4115.89733525062640000000, 4152.82041127081630000000, 3961.53836466622080000000, 4225.12810181035550000000, 4179.99989778567850000000, 4258.97425482886230000000, 4461.02553193934640000000, 4313.33322785858670000000, 3923.07682714518930000000, 4127.17938625679560000000, 4038.97426020856350000000, 3838.97426509920110000000, 0.00000000000000000000, 0.00000000000000000000, 0.00000000000000000000, 0.00000000000000000000, 0.00000000000000000000, 0.00000000000000000000, 0.00000000000000000000, 0.00000000000000000000, 0.00000000000000000000, 0.00000000000000000000, 0.00000000000000000000, 0.00000000000000000000, 0.00000000000000000000, 0.00000000000000000000, 0.00000000000000000000, 1.00000000000000000000, 1.00000000000000000000, 1676.00000000000000000000, 1685.00000000000000000000, 0.00000000000000000000
30.00000000000000000000, 0.00000000000000000000, 4048.20502921361140000000, 4010.25631219286020000000, 4117.94861725174810000000, 4152.82041127081630000000, 3963.58964666734250000000, 4229.74348631287920000000, 4177.43579528427650000000, 4266.15374183278800000000, 4470.25630094439480000000, 4316.92297136055000000000, 3931.28195514967590000000, 4132.82041175987980000000, 4041.53836270996590000000, 3847.69221360396800000000, 0.00000000000000000000, 0.00000000000000000000, 0.00000000000000000000, 0.00000000000000000000, 0.00000000000000000000, 0.00000000000000000000, 0.00000000000000000000, 0.00000000000000000000, 0.00000000000000000000, 0.00000000000000000000, 0.00000000000000000000, 0.00000000000000000000, 0.00000000000000000000, 0.00000000000000000000, 0.00000000000000000000, 1.00000000000000000000, 1.00000000000000000000, 1677.00000000000000000000, 1684.00000000000000000000, 0.00000000000000000000
31.00000000000000000000, 0.00000000000000000000, 4053.84605471669560000000, 4006.66656869089730000000, 4119.48707875258880000000, 4151.79477027025500000000, 3965.12810816818360000000, 4233.33322981484160000000, 4178.97425678511720000000, 4275.89733133811660000000, 4477.43578794832050000000, 4323.07681736391440000000, 3942.56400615584520000000, 4139.48707826352530000000, 4047.17938821305050000000, 3854.35888010761350000000, 0.00000000000000000000, 0.00000000000000000000, 0.00000000000000000000, 0.00000000000000000000, 0.00000000000000000000, 0.00000000000000000000, 0.00000000000000000000, 0.00000000000000000000, 0.00000000000000000000, 0.00000000000000000000, 0.00000000000000000000, 0.00000000000000000000, 0.00000000000000000000, 0.00000000000000000000, 0.00000000000000000000, 1.00000000000000000000, 1.00000000000000000000, 1676.00000000000000000000, 1686.00000000000000000000, 0.00000000000000000000
32.00000000000000000000, 0.00000000000000000000, 4059.48708021978020000000, 4012.82041469426260000000, 4126.15374525623430000000, 4153.84605227137670000000, 3966.66656966902470000000, 4232.82040931456140000000, 4180.51271828595870000000, 4284.61527984288300000000, 4489.23065945476990000000, 4334.35886837008370000000, 3950.25631366005150000000, 4147.17938576773120000000, 4052.30759321585450000000, 3863.07682861238070000000, 0.00000000000000000000, 0.00000000000000000000, 0.00000000000000000000, 0.00000000000000000000, 0.00000000000000000000, 0.00000000000000000000, 0.00000000000000000000, 0.00000000000000000000, 0.00000000000000000000, 0.00000000000000000000, 0.00000000000000000000, 0.00000000000000000000, 0.00000000000000000000, 0.00000000000000000000, 0.00000000000000000000, 1.00000000000000000000, 1.00000000000000000000, 1678.00000000000000000000, 1685.00000000000000000000, 0.00000000000000000000
33.00000000000000000000, 0.00000000000000000000, 4058.97425971950000000000, 4018.46144019734720000000, 4130.76912975875800000000, 4153.33323177109650000000, 3967.17939016930540000000, 4231.79476831400010000000, 4177.43579528427650000000, 4289.23066434540670000000, 4498.46142845981740000000, 4339.99989387316870000000, 3954.87169816257530000000, 4154.35887277165780000000, 4054.35887521697620000000, 3872.30759761742820000000, 0.00000000000000000000, 0.00000000000000000000, 0.00000000000000000000, 0.00000000000000000000, 0.00000000000000000000, 0.00000000000000000000, 0.00000000000000000000, 0.00000000000000000000, 0.00000000000000000000, 0.00000000000000000000, 0.00000000000000000000, 0.00000000000000000000, 0.00000000000000000000, 0.00000000000000000000, 0.00000000000000000000, 1.00000000000000000000, 1.00000000000000000000, 1676.00000000000000000000, 1686.00000000000000000000, 0.00000000000000000000
34.00000000000000000000, 0.00000000000000000000, 4064.10246472230390000000, 4020.51272219846850000000, 4134.35887326072130000000, 4154.35887277165780000000, 3969.74349267070740000000, 4233.84605031512180000000, 4181.53835928651920000000, 4298.46143335045510000000, 4502.56399246206090000000, 4342.56399637457070000000, 3965.12810816818360000000, 4160.51271877502220000000, 4057.94861871893910000000, 3880.51272562191480000000, 0.00000000000000000000, 0.00000000000000000000, 0.00000000000000000000, 0.00000000000000000000, 0.00000000000000000000, 0.00000000000000000000, 0.00000000000000000000, 0.00000000000000000000, 0.00000000000000000000, 0.00000000000000000000, 0.00000000000000000000, 0.00000000000000000000, 0.00000000000000000000, 0.00000000000000000000, 0.00000000000000000000, 1.00000000000000000000, 1.00000000000000000000, 1678.00000000000000000000, 1686.00000000000000000000, 0.00000000000000000000
35.00000000000000000000, 0.00000000000000000000, 4069.74349022538850000000, 4020.51272219846850000000, 4135.89733476156290000000, 4159.99989827474200000000, 3972.30759517210940000000, 4232.30758881428120000000, 4186.66656428932400000000, 4299.48707435101550000000, 4502.05117196177980000000, 4343.07681687485090000000, 3968.71785167014650000000, 4157.43579577334000000000, 4059.99990072006090000000, 3881.53836662247570000000, 0.00000000000000000000, 0.00000000000000000000, 0.00000000000000000000, 0.00000000000000000000, 0.00000000000000000000, 0.00000000000000000000, 0.00000000000000000000, 0.00000000000000000000, 0.00000000000000000000, 0.00000000000000000000, 0.00000000000000000000, 0.00000000000000000000, 0.00000000000000000000, 0.00000000000000000000, 0.00000000000000000000, 1.00000000000000000000, 1.00000000000000000000, 1678.00000000000000000000, 1685.00000000000000000000, 0.00000000000000000000
36.00000000000000000000, 0.00000000000000000000, 4066.66656722370640000000, 4019.99990169818830000000, 4132.82041175987980000000, 4158.97425727418160000000, 3972.82041567239000000000, 4232.82040931456140000000, 4187.69220528988440000000, 4290.25630534596800000000, 4498.97424896009760000000, 4339.99989387316870000000, 3963.58964666734250000000, 4152.30759077053610000000, 4059.48708021978020000000, 3878.46144362079300000000, 0.00000000000000000000, 0.00000000000000000000, 0.00000000000000000000, 0.00000000000000000000, 0.00000000000000000000, 0.00000000000000000000, 0.00000000000000000000, 0.00000000000000000000, 0.00000000000000000000, 0.00000000000000000000, 0.00000000000000000000, 0.00000000000000000000, 0.00000000000000000000, 0.00000000000000000000, 0.00000000000000000000, 1.00000000000000000000, 1.00000000000000000000, 1677.00000000000000000000, 1686.00000000000000000000, 0.00000000000000000000
37.00000000000000000000, 0.00000000000000000000, 4059.99990072006090000000, 4019.48708119790760000000, 4130.76912975875800000000, 4152.30759077053610000000, 3973.33323617267020000000, 4234.35887081540300000000, 4185.12810278848250000000, 4286.66656184400470000000, 4492.82040295673230000000, 4335.38450937064500000000, 3958.46144166453810000000, 4154.35887277165780000000, 4055.89733671781730000000, 3871.28195661686730000000, 0.00000000000000000000, 0.00000000000000000000, 0.00000000000000000000, 0.00000000000000000000, 0.00000000000000000000, 0.00000000000000000000, 0.00000000000000000000, 0.00000000000000000000, 0.00000000000000000000, 0.00000000000000000000, 0.00000000000000000000, 0.00000000000000000000, 0.00000000000000000000, 0.00000000000000000000, 0.00000000000000000000, 1.00000000000000000000, 1.00000000000000000000, 1679.00000000000000000000, 1685.00000000000000000000, 0.00000000000000000000
38.00000000000000000000, 0.00000000000000000000, 4060.51272122034110000000, 4020.51272219846850000000, 4128.20502725735610000000, 4151.79477027025500000000, 3972.82041567239000000000, 4233.33322981484160000000, 4185.12810278848250000000, 4286.66656184400470000000, 4485.64091595280660000000, 4332.82040686924300000000, 3949.74349315977130000000, 4151.28194976997470000000, 4053.33323421641530000000, 3863.58964911266090000000, 0.00000000000000000000, 0.00000000000000000000, 0.00000000000000000000, 0.00000000000000000000, 0.00000000000000000000, 0.00000000000000000000, 0.00000000000000000000, 0.00000000000000000000, 0.00000000000000000000, 0.00000000000000000000, 0.00000000000000000000, 0.00000000000000000000, 0.00000000000000000000, 0.00000000000000000000, 0.00000000000000000000, 1.00000000000000000000, 1.00000000000000000000, 1678.00000000000000000000, 1686.00000000000000000000, 0.00000000000000000000
39.00000000000000000000, 0.00000000000000000000, 4062.56400322146280000000, 4022.05118369931010000000, 4124.61528375539360000000, 4153.84605227137670000000, 3970.25631317098760000000, 4233.33322981484160000000, 4185.12810278848250000000, 4285.12810034316410000000, 4484.61527495224620000000, 4331.28194536840150000000, 3947.69221115864960000000, 4145.64092426689060000000, 4053.84605471669560000000, 3865.12811061350250000000, 0.00000000000000000000, 0.00000000000000000000, 0.00000000000000000000, 0.00000000000000000000, 0.00000000000000000000, 0.00000000000000000000, 0.00000000000000000000, 0.00000000000000000000, 0.00000000000000000000, 0.00000000000000000000, 0.00000000000000000000, 0.00000000000000000000, 0.00000000000000000000, 0.00000000000000000000, 0.00000000000000000000, 1.00000000000000000000, 1.00000000000000000000, 1679.00000000000000000000, 1686.00000000000000000000, 0.00000000000000000000
40.00000000000000000000, 0.00000000000000000000, 4059.48708021978020000000, 4019.48708119790760000000, 4121.53836075371050000000, 4151.79477027025500000000, 3969.23067217042720000000, 4233.33322981484160000000, 4184.61528228820230000000, 4273.33322883671460000000, 4475.89732644747890000000, 4324.10245836447580000000, 3946.66657015808870000000, 4141.53836026464710000000, 4047.17938821305050000000, 3857.43580310929610000000, 0.00000000000000000000, 0.00000000000000000000, 0.00000000000000000000, 0.00000000000000000000, 0.00000000000000000000, 0.00000000000000000000, 0.00000000000000000000, 0.00000000000000000000, 0.00000000000000000000, 0.00000000000000000000, 0.00000000000000000000, 0.00000000000000000000, 0.00000000000000000000, 0.00000000000000000000, 0.00000000000000000000, 1.00000000000000000000, 1.00000000000000000000, 1677.00000000000000000000, 1686.00000000000000000000, 0.00000000000000000000
41.00000000000000000000, 0.00000000000000000000, 4052.30759321585450000000, 4018.46144019734720000000, 4122.05118125399170000000, 4151.28194976997470000000, 3971.79477467182910000000, 4233.33322981484160000000, 4184.10246178792200000000, 4266.66656233306910000000, 4466.66655744243140000000, 4321.02553536279270000000, 3941.02554465500410000000, 4139.99989876380550000000, 4044.61528571164810000000, 3847.69221360396800000000, 0.00000000000000000000, 0.00000000000000000000, 0.00000000000000000000, 0.00000000000000000000, 0.00000000000000000000, 0.00000000000000000000, 0.00000000000000000000, 0.00000000000000000000, 0.00000000000000000000, 0.00000000000000000000, 0.00000000000000000000, 0.00000000000000000000, 0.00000000000000000000, 0.00000000000000000000, 0.00000000000000000000, 1.00000000000000000000, 1.00000000000000000000, 1679.00000000000000000000, 1686.00000000000000000000, 0.00000000000000000000
42.00000000000000000000, 0.00000000000000000000, 4050.25631121473270000000, 4017.43579919678630000000, 4119.99989925286990000000, 4152.82041127081630000000, 3971.79477467182910000000, 4232.30758881428120000000, 4184.10246178792200000000, 4272.82040833643350000000, 4469.23065994383340000000, 4322.56399686363420000000, 3938.46144215360210000000, 4136.92297576212330000000, 4051.28195221529360000000, 3849.74349560508970000000, 0.00000000000000000000, 0.00000000000000000000, 0.00000000000000000000, 0.00000000000000000000, 0.00000000000000000000, 0.00000000000000000000, 0.00000000000000000000, 0.00000000000000000000, 0.00000000000000000000, 0.00000000000000000000, 0.00000000000000000000, 0.00000000000000000000, 0.00000000000000000000, 0.00000000000000000000, 0.00000000000000000000, 1.00000000000000000000, 1.00000000000000000000, 1677.00000000000000000000, 1685.00000000000000000000, 0.00000000000000000000
43.00000000000000000000, 0.00000000000000000000, 4056.41015721809800000000, 4018.97426069762740000000, 4116.92297625118680000000, 4153.33323177109650000000, 3971.28195417154850000000, 4233.33322981484160000000, 4186.15374378904290000000, 4279.48707484007900000000, 4481.02553145028290000000, 4326.15374036559750000000, 3946.66657015808870000000, 4138.97425776324510000000, 4055.89733671781730000000, 3858.46144410985700000000, 0.00000000000000000000, 0.00000000000000000000, 0.00000000000000000000, 0.00000000000000000000, 0.00000000000000000000, 0.00000000000000000000, 0.00000000000000000000, 0.00000000000000000000, 0.00000000000000000000, 0.00000000000000000000, 0.00000000000000000000, 0.00000000000000000000, 0.00000000000000000000, 0.00000000000000000000, 0.00000000000000000000, 1.00000000000000000000, 1.00000000000000000000, 1677.00000000000000000000, 1685.00000000000000000000, 0.00000000000000000000
44.00000000000000000000, 0.00000000000000000000, 4061.02554172062170000000, 4024.61528620071200000000, 4121.53836075371050000000, 4153.84605227137670000000, 3972.82041567239000000000, 4234.35887081540300000000, 4186.66656428932400000000, 4284.10245934260270000000, 4489.74347995505010000000, 4331.79476586868170000000, 3954.35887766229510000000, 4145.64092426689060000000, 4055.89733671781730000000, 3862.56400811210010000000, 0.00000000000000000000, 0.00000000000000000000, 0.00000000000000000000, 0.00000000000000000000, 0.00000000000000000000, 0.00000000000000000000, 0.00000000000000000000, 0.00000000000000000000, 0.00000000000000000000, 0.00000000000000000000, 0.00000000000000000000, 0.00000000000000000000, 0.00000000000000000000, 0.00000000000000000000, 0.00000000000000000000, 1.00000000000000000000, 1.00000000000000000000, 1677.00000000000000000000, 1685.00000000000000000000, 0.00000000000000000000
45.00000000000000000000, 0.00000000000000000000, 4060.51272122034110000000, 4027.69220920239470000000, 4124.10246325511250000000, 4152.30759077053610000000, 3973.33323617267020000000, 4233.84605031512180000000, 4186.66656428932400000000, 4284.61527984288300000000, 4489.74347995505010000000, 4337.43579137176680000000, 3954.87169816257530000000, 4148.71784726857280000000, 4057.43579821865890000000, 3864.61529011322180000000, 0.00000000000000000000, 0.00000000000000000000, 0.00000000000000000000, 0.00000000000000000000, 0.00000000000000000000, 0.00000000000000000000, 0.00000000000000000000, 0.00000000000000000000, 0.00000000000000000000, 0.00000000000000000000, 0.00000000000000000000, 0.00000000000000000000, 0.00000000000000000000, 0.00000000000000000000, 0.00000000000000000000, 1.00000000000000000000, 1.00000000000000000000, 1677.00000000000000000000, 1684.00000000000000000000, 0.00000000000000000000
46.00000000000000000000, 0.00000000000000000000, 4058.46143921921930000000, 4026.66656820183380000000, 4121.53836075371050000000, 4152.30759077053610000000, 3973.84605667295090000000, 4232.82040931456140000000, 4185.64092328876270000000, 4281.53835684120080000000, 4485.12809545252640000000, 4336.41015037120540000000, 3951.28195466061240000000, 4147.69220626801230000000, 4059.48708021978020000000, 3866.66657211434360000000, 0.00000000000000000000, 0.00000000000000000000, 0.00000000000000000000, 0.00000000000000000000, 0.00000000000000000000, 0.00000000000000000000, 0.00000000000000000000, 0.00000000000000000000, 0.00000000000000000000, 0.00000000000000000000, 0.00000000000000000000, 0.00000000000000000000, 0.00000000000000000000, 0.00000000000000000000, 0.00000000000000000000, 1.00000000000000000000, 1.00000000000000000000, 1677.00000000000000000000, 1682.00000000000000000000, 0.00000000000000000000
47.00000000000000000000, 0.00000000000000000000, 4057.94861871893910000000, 4024.10246570043140000000, 4123.07682225455210000000, 4152.82041127081630000000, 3973.84605667295090000000, 4232.82040931456140000000, 4184.10246178792200000000, 4278.46143383951860000000, 4483.58963395168480000000, 4332.30758636896190000000, 3950.25631366005150000000, 4146.15374476717080000000, 4057.43579821865890000000, 3864.61529011322180000000, 0.00000000000000000000, 0.00000000000000000000, 0.00000000000000000000, 0.00000000000000000000, 0.00000000000000000000, 0.00000000000000000000, 0.00000000000000000000, 0.00000000000000000000, 0.00000000000000000000, 0.00000000000000000000, 0.00000000000000000000, 0.00000000000000000000, 0.00000000000000000000, 0.00000000000000000000, 0.00000000000000000000, 1.00000000000000000000, 1.00000000000000000000, 1676.00000000000000000000, 1683.00000000000000000000, 0.00000000000000000000
48.00000000000000000000, 0.00000000000000000000, 4054.35887521697620000000, 4024.61528620071200000000, 4126.15374525623430000000, 4152.30759077053610000000, 3974.87169767351130000000, 4232.82040931456140000000, 4186.66656428932400000000, 4278.97425433979880000000, 4484.10245445196600000000, 4332.30758636896190000000, 3950.76913416033180000000, 4141.53836026464710000000, 4052.82041371613510000000, 3862.56400811210010000000, 0.00000000000000000000, 0.00000000000000000000, 0.00000000000000000000, 0.00000000000000000000, 0.00000000000000000000, 0.00000000000000000000, 0.00000000000000000000, 0.00000000000000000000, 0.00000000000000000000, 0.00000000000000000000, 0.00000000000000000000, 0.00000000000000000000, 0.00000000000000000000, 0.00000000000000000000, 0.00000000000000000000, 1.00000000000000000000, 1.00000000000000000000, 1678.00000000000000000000, 1681.00000000000000000000, 0.00000000000000000000
49.00000000000000000000, 0.00000000000000000000, 4050.25631121473270000000, 4024.10246570043140000000, 4123.58964275483230000000, 4152.30759077053610000000, 3974.87169767351130000000, 4232.82040931456140000000, 4188.71784629044580000000, 4279.48707484007900000000, 4480.51271095000270000000, 4329.74348386755990000000, 3949.23067265949070000000, 4140.51271926408660000000, 4050.25631121473270000000, 3861.53836711153960000000, 0.00000000000000000000, 0.00000000000000000000, 0.00000000000000000000, 0.00000000000000000000, 0.00000000000000000000, 0.00000000000000000000, 0.00000000000000000000, 0.00000000000000000000, 0.00000000000000000000, 0.00000000000000000000, 0.00000000000000000000, 0.00000000000000000000, 0.00000000000000000000, 0.00000000000000000000, 0.00000000000000000000, 1.00000000000000000000, 1.00000000000000000000, 1678.00000000000000000000, 1683.00000000000000000000, 0.00000000000000000000
50.00000000000000000000, 0.00000000000000000000, 4057.43579821865890000000, 4024.61528620071200000000, 4122.05118125399170000000, 4153.84605227137670000000, 3975.38451817379200000000, 4232.82040931456140000000, 4187.17938478960420000000, 4281.02553634092060000000, 4481.53835195056310000000, 4331.28194536840150000000, 3950.25631366005150000000, 4146.66656526745100000000, 4054.87169571725640000000, 3865.12811061350250000000, 0.00000000000000000000, 0.00000000000000000000, 0.00000000000000000000, 0.00000000000000000000, 0.00000000000000000000, 0.00000000000000000000, 0.00000000000000000000, 0.00000000000000000000, 0.00000000000000000000, 0.00000000000000000000, 0.00000000000000000000, 0.00000000000000000000, 0.00000000000000000000, 0.00000000000000000000, 0.00000000000000000000, 1.00000000000000000000, 1.00000000000000000000, 1679.00000000000000000000, 1683.00000000000000000000, 0.00000000000000000000
51.00000000000000000000, 0.00000000000000000000, 4060.51272122034110000000, 4024.61528620071200000000, 4121.53836075371050000000, 4153.84605227137670000000, 3977.43580017491380000000, 4233.33322981484160000000, 4183.07682078736070000000, 4279.99989534035920000000, 4482.05117245084420000000, 4333.33322736952320000000, 3949.23067265949070000000, 4148.20502676829260000000, 4056.41015721809800000000, 3861.53836711153960000000, 0.00000000000000000000, 0.00000000000000000000, 0.00000000000000000000, 0.00000000000000000000, 0.00000000000000000000, 0.00000000000000000000, 0.00000000000000000000, 0.00000000000000000000, 0.00000000000000000000, 0.00000000000000000000, 0.00000000000000000000, 0.00000000000000000000, 0.00000000000000000000, 0.00000000000000000000, 0.00000000000000000000, 1.00000000000000000000, 1.00000000000000000000, 1679.00000000000000000000, 1682.00000000000000000000, 0.00000000000000000000
52.00000000000000000000, 0.00000000000000000000, 4056.41015721809800000000, 4023.58964520015120000000, 4121.02554025343030000000, 4151.79477027025500000000, 3977.94862067519400000000, 4232.30758881428120000000, 4181.02553878623890000000, 4280.51271584064030000000, 4479.99989044972240000000, 4332.30758636896190000000, 3949.74349315977130000000, 4144.61528326632920000000, 4052.30759321585450000000, 3858.97426461013720000000, 0.00000000000000000000, 0.00000000000000000000, 0.00000000000000000000, 0.00000000000000000000, 0.00000000000000000000, 0.00000000000000000000, 0.00000000000000000000, 0.00000000000000000000, 0.00000000000000000000, 0.00000000000000000000, 0.00000000000000000000, 0.00000000000000000000, 0.00000000000000000000, 0.00000000000000000000, 0.00000000000000000000, 1.00000000000000000000, 1.00000000000000000000, 1679.00000000000000000000, 1682.00000000000000000000, 0.00000000000000000000
53.00000000000000000000, 0.00000000000000000000, 4056.41015721809800000000, 4024.10246570043140000000, 4122.56400175427190000000, 4151.28194976997470000000, 3973.33323617267020000000, 4231.79476831400010000000, 4181.02553878623890000000, 4276.41015183839680000000, 4474.35886494663740000000, 4324.61527886475600000000, 3945.12810865724760000000, 4137.43579626240350000000, 4049.74349071445250000000, 3855.89734160845500000000, 0.00000000000000000000, 0.00000000000000000000, 0.00000000000000000000, 0.00000000000000000000, 0.00000000000000000000, 0.00000000000000000000, 0.00000000000000000000, 0.00000000000000000000, 0.00000000000000000000, 0.00000000000000000000, 0.00000000000000000000, 0.00000000000000000000, 0.00000000000000000000, 0.00000000000000000000, 0.00000000000000000000, 1.00000000000000000000, 1.00000000000000000000, 1680.00000000000000000000, 1680.00000000000000000000, 0.00000000000000000000
54.00000000000000000000, 0.00000000000000000000, 4061.02554172062170000000, 4025.64092720127290000000, 4124.10246325511250000000, 4152.82041127081630000000, 3972.82041567239000000000, 4232.30758881428120000000, 4185.64092328876270000000, 4274.35886983727510000000, 4476.41014694775910000000, 4324.61527886475600000000, 3945.12810865724760000000, 4138.46143726296490000000, 4050.25631121473270000000, 3855.89734160845500000000, 0.00000000000000000000, 0.00000000000000000000, 0.00000000000000000000, 0.00000000000000000000, 0.00000000000000000000, 0.00000000000000000000, 0.00000000000000000000, 0.00000000000000000000, 0.00000000000000000000, 0.00000000000000000000, 0.00000000000000000000, 0.00000000000000000000, 0.00000000000000000000, 0.00000000000000000000, 0.00000000000000000000, 1.00000000000000000000, 1.00000000000000000000, 1681.00000000000000000000, 1679.00000000000000000000, 0.00000000000000000000
55.00000000000000000000, 0.00000000000000000000, 4061.02554172062170000000, 4026.15374770155310000000, 4123.58964275483230000000, 4153.84605227137670000000, 3976.41015917435290000000, 4231.79476831400010000000, 4186.15374378904290000000, 4278.97425433979880000000, 4478.97424944916110000000, 4332.30758636896190000000, 3948.20503165892980000000, 4145.64092426689060000000, 4049.74349071445250000000, 3858.46144410985700000000, 0.00000000000000000000, 0.00000000000000000000, 0.00000000000000000000, 0.00000000000000000000, 0.00000000000000000000, 0.00000000000000000000, 0.00000000000000000000, 0.00000000000000000000, 0.00000000000000000000, 0.00000000000000000000, 0.00000000000000000000, 0.00000000000000000000, 0.00000000000000000000, 0.00000000000000000000, 0.00000000000000000000, 1.00000000000000000000, 1.00000000000000000000, 1680.00000000000000000000, 1679.00000000000000000000, 0.00000000000000000000
56.00000000000000000000, 0.00000000000000000000, 4054.87169571725640000000, 4022.05118369931010000000, 4124.10246325511250000000, 4153.33323177109650000000, 3974.87169767351130000000, 4229.23066581259810000000, 4178.97425678511720000000, 4273.84604933699480000000, 4471.79476244523540000000, 4323.58963786419460000000, 3942.56400615584520000000, 4141.02553976436680000000, 4046.66656771276980000000, 3852.82041860677240000000, 0.00000000000000000000, 0.00000000000000000000, 0.00000000000000000000, 0.00000000000000000000, 0.00000000000000000000, 0.00000000000000000000, 0.00000000000000000000, 0.00000000000000000000, 0.00000000000000000000, 0.00000000000000000000, 0.00000000000000000000, 0.00000000000000000000, 0.00000000000000000000, 0.00000000000000000000, 0.00000000000000000000, 1.00000000000000000000, 1.00000000000000000000, 1681.00000000000000000000, 1679.00000000000000000000, 0.00000000000000000000
57.00000000000000000000, 0.00000000000000000000, 4050.76913171501340000000, 4020.51272219846850000000, 4125.12810425567390000000, 4153.84605227137670000000, 3973.84605667295090000000, 4229.23066581259810000000, 4178.97425678511720000000, 4262.56399833082560000000, 4467.69219844299190000000, 4314.35886885914720000000, 3937.43580115304120000000, 4131.79477075931940000000, 4045.12810621192880000000, 3846.15375210312690000000, 0.00000000000000000000, 0.00000000000000000000, 0.00000000000000000000, 0.00000000000000000000, 0.00000000000000000000, 0.00000000000000000000, 0.00000000000000000000, 0.00000000000000000000, 0.00000000000000000000, 0.00000000000000000000, 0.00000000000000000000, 0.00000000000000000000, 0.00000000000000000000, 0.00000000000000000000, 0.00000000000000000000, 1.00000000000000000000, 1.00000000000000000000, 1680.00000000000000000000, 1679.00000000000000000000, 0.00000000000000000000
58.00000000000000000000, 0.00000000000000000000, 4051.28195221529360000000, 4021.53836319902940000000, 4123.07682225455210000000, 4154.35887277165780000000, 3976.41015917435290000000, 4230.76912731343960000000, 4180.51271828595870000000, 4256.92297282774050000000, 4462.56399344018790000000, 4314.35886885914720000000, 3931.79477564995660000000, 4130.25630925847780000000, 4043.07682421080700000000, 3842.56400860116400000000, 0.00000000000000000000, 0.00000000000000000000, 0.00000000000000000000, 0.00000000000000000000, 0.00000000000000000000, 0.00000000000000000000, 0.00000000000000000000, 0.00000000000000000000, 0.00000000000000000000, 0.00000000000000000000, 0.00000000000000000000, 0.00000000000000000000, 0.00000000000000000000, 0.00000000000000000000, 0.00000000000000000000, 1.00000000000000000000, 1.00000000000000000000, 1680.00000000000000000000, 1679.00000000000000000000, 0.00000000000000000000
59.00000000000000000000, 0.00000000000000000000, 4053.84605471669560000000, 4022.05118369931010000000, 4120.51271975315010000000, 4153.33323177109650000000, 3974.35887717323110000000, 4232.30758881428120000000, 4179.99989778567850000000, 4259.48707532914250000000, 4463.58963444074930000000, 4316.92297136055000000000, 3930.25631414911550000000, 4133.84605276044110000000, 4043.07682421080700000000, 3846.15375210312690000000, 0.00000000000000000000, 0.00000000000000000000, 0.00000000000000000000, 0.00000000000000000000, 0.00000000000000000000, 0.00000000000000000000, 0.00000000000000000000, 0.00000000000000000000, 0.00000000000000000000, 0.00000000000000000000, 0.00000000000000000000, 0.00000000000000000000, 0.00000000000000000000, 0.00000000000000000000, 0.00000000000000000000, 1.00000000000000000000, 1.00000000000000000000, 1680.00000000000000000000, 1679.00000000000000000000, 0.00000000000000000000
60.00000000000000000000, 0.00000000000000000000, 4049.74349071445250000000, 4022.56400419959030000000, 4118.46143775202840000000, 4152.30759077053610000000, 3971.28195417154850000000, 4230.76912731343960000000, 4183.07682078736070000000, 4258.97425482886230000000, 4462.05117293990770000000, 4310.76912535718470000000, 3926.15375014687200000000, 4128.71784775763630000000, 4042.05118321024610000000, 3842.56400860116400000000, 0.00000000000000000000, 0.00000000000000000000, 0.00000000000000000000, 0.00000000000000000000, 0.00000000000000000000, 0.00000000000000000000, 0.00000000000000000000, 0.00000000000000000000, 0.00000000000000000000, 0.00000000000000000000, 0.00000000000000000000, 0.00000000000000000000, 0.00000000000000000000, 0.00000000000000000000, 0.00000000000000000000, 1.00000000000000000000, 1.00000000000000000000, 1680.00000000000000000000, 1680.00000000000000000000, 0.00000000000000000000
61.00000000000000000000, 0.00000000000000000000, 4048.71784971389160000000, 4022.56400419959030000000, 4117.94861725174810000000, 4152.30759077053610000000, 3972.82041567239000000000, 4230.76912731343960000000, 4187.17938478960420000000, 4262.05117783054540000000, 4461.53835243962750000000, 4314.35886885914720000000, 3929.23067314855460000000, 4129.74348875819760000000, 4041.53836270996590000000, 3841.53836760060310000000, 0.00000000000000000000, 0.00000000000000000000, 0.00000000000000000000, 0.00000000000000000000, 0.00000000000000000000, 0.00000000000000000000, 0.00000000000000000000, 0.00000000000000000000, 0.00000000000000000000, 0.00000000000000000000, 0.00000000000000000000, 0.00000000000000000000, 0.00000000000000000000, 0.00000000000000000000, 0.00000000000000000000, 1.00000000000000000000, 1.00000000000000000000, 1679.00000000000000000000, 1681.00000000000000000000, 0.00000000000000000000
62.00000000000000000000, 0.00000000000000000000, 4050.76913171501340000000, 4017.94861969706650000000, 4117.43579675146700000000, 4152.30759077053610000000, 3973.33323617267020000000, 4231.28194781371990000000, 4183.07682078736070000000, 4259.99989582942360000000, 4458.97424993822550000000, 4317.43579186083020000000, 3929.23067314855460000000, 4132.82041175987980000000, 4041.02554220968520000000, 3842.05118810088380000000, 0.00000000000000000000, 0.00000000000000000000, 0.00000000000000000000, 0.00000000000000000000, 0.00000000000000000000, 0.00000000000000000000, 0.00000000000000000000, 0.00000000000000000000, 0.00000000000000000000, 0.00000000000000000000, 0.00000000000000000000, 0.00000000000000000000, 0.00000000000000000000, 0.00000000000000000000, 0.00000000000000000000, 1.00000000000000000000, 1.00000000000000000000, 1680.00000000000000000000, 1680.00000000000000000000, 0.00000000000000000000
63.00000000000000000000, 0.00000000000000000000, 4049.74349071445250000000, 4017.43579919678630000000, 4117.94861725174810000000, 4152.30759077053610000000, 3969.23067217042720000000, 4231.28194781371990000000, 4179.99989778567850000000, 4257.94861382830190000000, 4462.05117293990770000000, 4313.84604835886690000000, 3927.69221164771310000000, 4131.79477075931940000000, 4043.07682421080700000000, 3842.05118810088380000000, 0.00000000000000000000, 0.00000000000000000000, 0.00000000000000000000, 0.00000000000000000000, 0.00000000000000000000, 0.00000000000000000000, 0.00000000000000000000, 0.00000000000000000000, 0.00000000000000000000, 0.00000000000000000000, 0.00000000000000000000, 0.00000000000000000000, 0.00000000000000000000, 0.00000000000000000000, 0.00000000000000000000, 1.00000000000000000000, 1.00000000000000000000, 1679.00000000000000000000, 1682.00000000000000000000, 0.00000000000000000000
64.00000000000000000000, 0.00000000000000000000, 4049.23067021417180000000, 4022.56400419959030000000, 4119.99989925286990000000, 4152.30759077053610000000, 3969.74349267070740000000, 4230.25630681315940000000, 4181.02553878623890000000, 4259.99989582942360000000, 4464.61527544130970000000, 4313.33322785858670000000, 3930.25631414911550000000, 4129.23066825791740000000, 4043.58964471108720000000, 3841.53836760060310000000, 0.00000000000000000000, 0.00000000000000000000, 0.00000000000000000000, 0.00000000000000000000, 0.00000000000000000000, 0.00000000000000000000, 0.00000000000000000000, 0.00000000000000000000, 0.00000000000000000000, 0.00000000000000000000, 0.00000000000000000000, 0.00000000000000000000, 0.00000000000000000000, 0.00000000000000000000, 0.00000000000000000000, 1.00000000000000000000, 1.00000000000000000000, 1680.00000000000000000000, 1682.00000000000000000000, 0.00000000000000000000
65.00000000000000000000, 0.00000000000000000000, 4049.74349071445250000000, 4022.05118369931010000000, 4121.53836075371050000000, 4152.30759077053610000000, 3971.28195417154850000000, 4229.23066581259810000000, 4178.97425678511720000000, 4259.48707532914250000000, 4461.53835243962750000000, 4313.33322785858670000000, 3929.23067314855460000000, 4129.23066825791740000000, 4041.53836270996590000000, 3839.99990609976200000000, 0.00000000000000000000, 0.00000000000000000000, 0.00000000000000000000, 0.00000000000000000000, 0.00000000000000000000, 0.00000000000000000000, 0.00000000000000000000, 0.00000000000000000000, 0.00000000000000000000, 0.00000000000000000000, 0.00000000000000000000, 0.00000000000000000000, 0.00000000000000000000, 0.00000000000000000000, 0.00000000000000000000, 1.00000000000000000000, 1.00000000000000000000, 1679.00000000000000000000, 1682.00000000000000000000, 0.00000000000000000000
66.00000000000000000000, 0.00000000000000000000, 4050.25631121473270000000, 4016.41015819622540000000, 4123.07682225455210000000, 4152.30759077053610000000, 3971.28195417154850000000, 4229.74348631287920000000, 4177.94861578455680000000, 4259.48707532914250000000, 4461.53835243962750000000, 4314.35886885914720000000, 3928.71785264827390000000, 4130.76912975875800000000, 4043.07682421080700000000, 3841.53836760060310000000, 0.00000000000000000000, 0.00000000000000000000, 0.00000000000000000000, 0.00000000000000000000, 0.00000000000000000000, 0.00000000000000000000, 0.00000000000000000000, 0.00000000000000000000, 0.00000000000000000000, 0.00000000000000000000, 0.00000000000000000000, 0.00000000000000000000, 0.00000000000000000000, 0.00000000000000000000, 0.00000000000000000000, 1.00000000000000000000, 1.00000000000000000000, 1679.00000000000000000000, 1684.00000000000000000000, 0.00000000000000000000
67.00000000000000000000, 0.00000000000000000000, 4051.79477271557430000000, 4015.38451719566460000000, 4122.05118125399170000000, 4152.30759077053610000000, 3972.82041567239000000000, 4230.76912731343960000000, 4181.02553878623890000000, 4261.02553682998400000000, 4461.02553193934640000000, 4313.33322785858670000000, 3928.71785264827390000000, 4129.74348875819760000000, 4044.10246521136790000000, 3841.53836760060310000000, 0.00000000000000000000, 0.00000000000000000000, 0.00000000000000000000, 0.00000000000000000000, 0.00000000000000000000, 0.00000000000000000000, 0.00000000000000000000, 0.00000000000000000000, 0.00000000000000000000, 0.00000000000000000000, 0.00000000000000000000, 0.00000000000000000000, 0.00000000000000000000, 0.00000000000000000000, 0.00000000000000000000, 1.00000000000000000000, 1.00000000000000000000, 1680.00000000000000000000, 1684.00000000000000000000, 0.00000000000000000000
68.00000000000000000000, 0.00000000000000000000, 4051.79477271557430000000, 4017.94861969706650000000, 4116.92297625118680000000, 4152.30759077053610000000, 3973.33323617267020000000, 4229.74348631287920000000, 4182.05117978680030000000, 4260.51271632970380000000, 4459.99989093878590000000, 4310.76912535718470000000, 3928.71785264827390000000, 4130.25630925847780000000, 4043.58964471108720000000, 3840.51272660004220000000, 0.00000000000000000000, 0.00000000000000000000, 0.00000000000000000000, 0.00000000000000000000, 0.00000000000000000000, 0.00000000000000000000, 0.00000000000000000000, 0.00000000000000000000, 0.00000000000000000000, 0.00000000000000000000, 0.00000000000000000000, 0.00000000000000000000, 0.00000000000000000000, 0.00000000000000000000, 0.00000000000000000000, 1.00000000000000000000, 1.00000000000000000000, 1678.00000000000000000000, 1686.00000000000000000000, 0.00000000000000000000
69.00000000000000000000, 0.00000000000000000000, 4050.76913171501340000000, 4019.48708119790760000000, 4118.46143775202840000000, 4152.30759077053610000000, 3971.79477467182910000000, 4227.17938381147630000000, 4177.43579528427650000000, 4257.94861382830190000000, 4458.46142943794440000000, 4310.76912535718470000000, 3929.74349364883480000000, 4132.30759125959960000000, 4044.10246521136790000000, 3843.07682910144420000000, 0.00000000000000000000, 0.00000000000000000000, 0.00000000000000000000, 0.00000000000000000000, 0.00000000000000000000, 0.00000000000000000000, 0.00000000000000000000, 0.00000000000000000000, 0.00000000000000000000, 0.00000000000000000000, 0.00000000000000000000, 0.00000000000000000000, 0.00000000000000000000, 0.00000000000000000000, 0.00000000000000000000, 1.00000000000000000000, 1.00000000000000000000, 1680.00000000000000000000, 1687.00000000000000000000, 0.00000000000000000000
70.00000000000000000000, 0.00000000000000000000, 4052.82041371613510000000, 4018.46144019734720000000, 4122.05118125399170000000, 4152.30759077053610000000, 3971.28195417154850000000, 4228.20502481203770000000, 4176.41015428371520000000, 4257.94861382830190000000, 4458.97424993822550000000, 4314.35886885914720000000, 3930.25631414911550000000, 4130.25630925847780000000, 4044.61528571164810000000, 3843.58964960172490000000, 0.00000000000000000000, 0.00000000000000000000, 0.00000000000000000000, 0.00000000000000000000, 0.00000000000000000000, 0.00000000000000000000, 0.00000000000000000000, 0.00000000000000000000, 0.00000000000000000000, 0.00000000000000000000, 0.00000000000000000000, 0.00000000000000000000, 0.00000000000000000000, 0.00000000000000000000, 0.00000000000000000000, 1.00000000000000000000, 1.00000000000000000000, 1678.00000000000000000000, 1686.00000000000000000000, 0.00000000000000000000
71.00000000000000000000, 0.00000000000000000000, 4053.84605471669560000000, 4015.89733769594480000000, 4121.53836075371050000000, 4152.30759077053610000000, 3969.74349267070740000000, 4231.28194781371990000000, 4183.07682078736070000000, 4259.48707532914250000000, 4461.02553193934640000000, 4314.87168935942830000000, 3929.74349364883480000000, 4128.71784775763630000000, 4042.56400371052680000000, 3841.53836760060310000000, 0.00000000000000000000, 0.00000000000000000000, 0.00000000000000000000, 0.00000000000000000000, 0.00000000000000000000, 0.00000000000000000000, 0.00000000000000000000, 0.00000000000000000000, 0.00000000000000000000, 0.00000000000000000000, 0.00000000000000000000, 0.00000000000000000000, 0.00000000000000000000, 0.00000000000000000000, 0.00000000000000000000, 1.00000000000000000000, 1.00000000000000000000, 1678.00000000000000000000, 1687.00000000000000000000, 0.00000000000000000000
72.00000000000000000000, 0.00000000000000000000, 4051.28195221529360000000, 4014.87169669538390000000, 4119.48707875258880000000, 4152.30759077053610000000, 3969.74349267070740000000, 4231.28194781371990000000, 4186.15374378904290000000, 4259.99989582942360000000, 4461.02553193934640000000, 4312.82040735830650000000, 3928.20503214799370000000, 4130.76912975875800000000, 4040.51272170940500000000, 3840.51272660004220000000, 0.00000000000000000000, 0.00000000000000000000, 0.00000000000000000000, 0.00000000000000000000, 0.00000000000000000000, 0.00000000000000000000, 0.00000000000000000000, 0.00000000000000000000, 0.00000000000000000000, 0.00000000000000000000, 0.00000000000000000000, 0.00000000000000000000, 0.00000000000000000000, 0.00000000000000000000, 0.00000000000000000000, 1.00000000000000000000, 1.00000000000000000000, 1677.00000000000000000000, 1687.00000000000000000000, 0.00000000000000000000
73.00000000000000000000, 0.00000000000000000000, 4051.28195221529360000000, 4017.43579919678630000000, 4119.99989925286990000000, 4152.30759077053610000000, 3970.25631317098760000000, 4230.25630681315940000000, 4179.99989778567850000000, 4258.97425482886230000000, 4460.51271143906620000000, 4312.30758685802630000000, 3930.25631414911550000000, 4130.76912975875800000000, 4043.58964471108720000000, 3841.53836760060310000000, 0.00000000000000000000, 0.00000000000000000000, 0.00000000000000000000, 0.00000000000000000000, 0.00000000000000000000, 0.00000000000000000000, 0.00000000000000000000, 0.00000000000000000000, 0.00000000000000000000, 0.00000000000000000000, 0.00000000000000000000, 0.00000000000000000000, 0.00000000000000000000, 0.00000000000000000000, 0.00000000000000000000, 1.00000000000000000000, 1.00000000000000000000, 1678.00000000000000000000, 1686.00000000000000000000, 0.00000000000000000000
74.00000000000000000000, 0.00000000000000000000, 4051.79477271557430000000, 4018.97426069762740000000, 4121.53836075371050000000, 4152.30759077053610000000, 3969.74349267070740000000, 4228.71784531231790000000, 4177.94861578455680000000, 4258.97425482886230000000, 4461.53835243962750000000, 4312.82040735830650000000, 3931.79477564995660000000, 4129.74348875819760000000, 4044.10246521136790000000, 3841.53836760060310000000, 0.00000000000000000000, 0.00000000000000000000, 0.00000000000000000000, 0.00000000000000000000, 0.00000000000000000000, 0.00000000000000000000, 0.00000000000000000000, 0.00000000000000000000, 0.00000000000000000000, 0.00000000000000000000, 0.00000000000000000000, 0.00000000000000000000, 0.00000000000000000000, 0.00000000000000000000, 0.00000000000000000000, 1.00000000000000000000, 1.00000000000000000000, 1676.00000000000000000000, 1685.00000000000000000000, 0.00000000000000000000
75.00000000000000000000, 0.00000000000000000000, 4049.74349071445250000000, 4017.94861969706650000000, 4121.53836075371050000000, 4152.30759077053610000000, 3969.74349267070740000000, 4228.71784531231790000000, 4179.99989778567850000000, 4259.48707532914250000000, 4459.99989093878590000000, 4313.33322785858670000000, 3929.23067314855460000000, 4130.25630925847780000000, 4041.02554220968520000000, 3841.02554710032290000000, 0.00000000000000000000, 0.00000000000000000000, 0.00000000000000000000, 0.00000000000000000000, 0.00000000000000000000, 0.00000000000000000000, 0.00000000000000000000, 0.00000000000000000000, 0.00000000000000000000, 0.00000000000000000000, 0.00000000000000000000, 0.00000000000000000000, 0.00000000000000000000, 0.00000000000000000000, 0.00000000000000000000, 1.00000000000000000000, 1.00000000000000000000, 1677.00000000000000000000, 1686.00000000000000000000, 0.00000000000000000000
