title:5555                                                                            , recorded:19.02.16 19.51.19, sampling:128, subject:123                                                                             , labels:COUNTER INTERPOLATED AF3 F7 F3 FC5 T7 P7 O1 O2 P8 T8 FC6 F4 F8 AF4 RAW_CQ CQ_AF3 CQ_F7 CQ_F3 CQ_FC5 CQ_T7 CQ_P7 CQ_O1 CQ_O2 CQ_P8 CQ_T8 CQ_FC6 CQ_F4 CQ_F8 CQ_AF4 CQ_CMS CQ_DRL GYROX GYROY MARKER, chan:36, units:emotiv
126.00000000000000000000, 0.00000000000000000000, 3174.35889673578090000000, 3983.58964617827860000000, 4108.71784824670070000000, 4131.28195025903910000000, 4215.89733280530710000000, 4423.07681491859600000000, 4431.28194292308220000000, 4256.41015232746030000000, 3954.87169816257530000000, 4279.48707484007900000000, 4130.25630925847780000000, 4123.07682225455210000000, 3975.89733867407220000000, 3845.12811110256600000000, 0.00000000000000000000, 0.00000000000000000000, 0.00000000000000000000, 0.00000000000000000000, 0.00000000000000000000, 0.00000000000000000000, 0.00000000000000000000, 0.00000000000000000000, 0.00000000000000000000, 0.00000000000000000000, 0.00000000000000000000, 0.00000000000000000000, 0.00000000000000000000, 0.00000000000000000000, 0.00000000000000000000, 1.00000000000000000000, 1.00000000000000000000, 1671.00000000000000000000, 1682.00000000000000000000, 0.00000000000000000000
127.00000000000000000000, 0.00000000000000000000, 3216.92299825905550000000, 3986.66656917996120000000, 4115.89733525062640000000, 4136.41015526184310000000, 4232.82040931456140000000, 4483.58963395168480000000, 4502.56399246206090000000, 4256.41015232746030000000, 4026.66656820183380000000, 4284.10245934260270000000, 4136.92297576212330000000, 4123.58964275483230000000, 3980.51272317659600000000, 3846.15375210312690000000, 0.00000000000000000000, 0.00000000000000000000, 0.00000000000000000000, 0.00000000000000000000, 0.00000000000000000000, 0.00000000000000000000, 0.00000000000000000000, 0.00000000000000000000, 0.00000000000000000000, 0.00000000000000000000, 0.00000000000000000000, 0.00000000000000000000, 0.00000000000000000000, 0.00000000000000000000, 0.00000000000000000000, 1.00000000000000000000, 1.00000000000000000000, 1669.00000000000000000000, 1682.00000000000000000000, 0.00000000000000000000
128.00000000000000000000, 0.00000000000000000000, 3267.17940728653640000000, 3989.23067168136320000000, 4113.84605324950460000000, 4136.41015526184310000000, 4234.87169131568320000000, 4473.33322394607690000000, 4502.56399246206090000000, 4255.89733182718010000000, 4023.07682469987090000000, 4288.20502334484630000000, 4142.05118076492730000000, 4125.64092475595410000000, 3987.17938968024150000000, 3845.64093160284660000000, 0.00000000000000000000, 0.00000000000000000000, 0.00000000000000000000, 0.00000000000000000000, 0.00000000000000000000, 0.00000000000000000000, 0.00000000000000000000, 0.00000000000000000000, 0.00000000000000000000, 0.00000000000000000000, 0.00000000000000000000, 0.00000000000000000000, 0.00000000000000000000, 0.00000000000000000000, 0.00000000000000000000, 1.00000000000000000000, 1.00000000000000000000, 1671.00000000000000000000, 1681.00000000000000000000, 0.00000000000000000000
0.00000000000000000000, 0.00000000000000000000, 3314.87171381261490000000, 3989.74349218164340000000, 4114.35887374978480000000, 4136.92297576212330000000, 4226.66656331119610000000, 4460.51271143906620000000, 4503.58963346262140000000, 4255.89733182718010000000, 4036.92297820744220000000, 4288.20502334484630000000, 4132.82041175987980000000, 4126.66656575651540000000, 3993.33323568360670000000, 3846.15375210312690000000, 0.00000000000000000000, 0.00000000000000000000, 0.00000000000000000000, 0.00000000000000000000, 0.00000000000000000000, 0.00000000000000000000, 0.00000000000000000000, 0.00000000000000000000, 0.00000000000000000000, 0.00000000000000000000, 0.00000000000000000000, 0.00000000000000000000, 0.00000000000000000000, 0.00000000000000000000, 0.00000000000000000000, 1.00000000000000000000, 1.00000000000000000000, 1669.00000000000000000000, 1680.00000000000000000000, 0.00000000000000000000
1.00000000000000000000, 0.00000000000000000000, 3358.46145633645030000000, 3985.64092817940040000000, 4116.41015575090660000000, 4138.46143726296490000000, 4163.58964177670530000000, 4429.23066092196130000000, 4474.87168544691850000000, 4256.92297282774050000000, 4043.58964471108720000000, 4287.17938234428580000000, 4081.02554123155780000000, 4124.10246325511250000000, 3997.94862018613050000000, 3848.20503410424860000000, 0.00000000000000000000, 0.00000000000000000000, 0.00000000000000000000, 0.00000000000000000000, 0.00000000000000000000, 0.00000000000000000000, 0.00000000000000000000, 0.00000000000000000000, 0.00000000000000000000, 0.00000000000000000000, 0.00000000000000000000, 0.00000000000000000000, 0.00000000000000000000, 0.00000000000000000000, 0.00000000000000000000, 1.00000000000000000000, 1.00000000000000000000, 1669.00000000000000000000, 1682.00000000000000000000, 0.00000000000000000000
2.00000000000000000000, 0.00000000000000000000, 3370.76914834318040000000, 3977.94862067519400000000, 4114.87169425006500000000, 4140.51271926408660000000, 4023.07682469987090000000, 4266.66656233306910000000, 4301.02553585185710000000, 4255.89733182718010000000, 3973.33323617267020000000, 4287.69220284456610000000, 3936.41016015248030000000, 4121.53836075371050000000, 3997.94862018613050000000, 3847.69221360396800000000, 0.00000000000000000000, 0.00000000000000000000, 0.00000000000000000000, 0.00000000000000000000, 0.00000000000000000000, 0.00000000000000000000, 0.00000000000000000000, 0.00000000000000000000, 0.00000000000000000000, 0.00000000000000000000, 0.00000000000000000000, 0.00000000000000000000, 0.00000000000000000000, 0.00000000000000000000, 0.00000000000000000000, 1.00000000000000000000, 1.00000000000000000000, 1669.00000000000000000000, 1681.00000000000000000000, 0.00000000000000000000
3.00000000000000000000, 0.00000000000000000000, 3371.28196884346060000000, 3971.28195417154850000000, 4111.28195074810260000000, 4137.94861676268370000000, 3898.97426363200980000000, 4107.17938674585910000000, 4133.33323226016000000000, 4255.89733182718010000000, 3883.58964862359740000000, 4285.12810034316410000000, 3805.64093258097410000000, 4117.94861725174810000000, 3996.41015868528890000000, 3844.61529060228580000000, 0.00000000000000000000, 0.00000000000000000000, 0.00000000000000000000, 0.00000000000000000000, 0.00000000000000000000, 0.00000000000000000000, 0.00000000000000000000, 0.00000000000000000000, 0.00000000000000000000, 0.00000000000000000000, 0.00000000000000000000, 0.00000000000000000000, 0.00000000000000000000, 0.00000000000000000000, 0.00000000000000000000, 1.00000000000000000000, 1.00000000000000000000, 1669.00000000000000000000, 1681.00000000000000000000, 0.00000000000000000000
4.00000000000000000000, 0.00000000000000000000, 3373.33325084458240000000, 3965.64092866846390000000, 4107.69220724613930000000, 4138.46143726296490000000, 3789.74349707228110000000, 4047.69220871333070000000, 4066.15374672342570000000, 4257.43579332802160000000, 3821.53836808966710000000, 4282.05117734148100000000, 3695.38452502068410000000, 4109.74348924726110000000, 3997.43579968584980000000, 3845.12811110256600000000, 0.00000000000000000000, 0.00000000000000000000, 0.00000000000000000000, 0.00000000000000000000, 0.00000000000000000000, 0.00000000000000000000, 0.00000000000000000000, 0.00000000000000000000, 0.00000000000000000000, 0.00000000000000000000, 0.00000000000000000000, 0.00000000000000000000, 0.00000000000000000000, 0.00000000000000000000, 0.00000000000000000000, 1.00000000000000000000, 1.00000000000000000000, 1669.00000000000000000000, 1681.00000000000000000000, 0.00000000000000000000
5.00000000000000000000, 0.00000000000000000000, 3391.79478885467730000000, 3958.97426216481880000000, 4108.71784824670070000000, 4138.46143726296490000000, 3766.66657455966240000000, 3999.99990218725180000000, 4004.61528668977550000000, 4258.46143432858210000000, 3839.99990609976200000000, 4281.53835684120080000000, 3672.30760250806540000000, 4105.12810474473740000000, 3999.48708168697160000000, 3846.66657260340750000000, 0.00000000000000000000, 0.00000000000000000000, 0.00000000000000000000, 0.00000000000000000000, 0.00000000000000000000, 0.00000000000000000000, 0.00000000000000000000, 0.00000000000000000000, 0.00000000000000000000, 0.00000000000000000000, 0.00000000000000000000, 0.00000000000000000000, 0.00000000000000000000, 0.00000000000000000000, 0.00000000000000000000, 1.00000000000000000000, 1.00000000000000000000, 1668.00000000000000000000, 1681.00000000000000000000, 0.00000000000000000000
6.00000000000000000000, 0.00000000000000000000, 3398.46145535832280000000, 3952.82041616145350000000, 4110.25630974754130000000, 4138.46143726296490000000, 3784.10247156919650000000, 3879.99990512163460000000, 3878.46144362079300000000, 4257.94861382830190000000, 3824.61529109134930000000, 4278.97425433979880000000, 3694.87170452040390000000, 4106.66656624557890000000, 3996.92297918556960000000, 3846.66657260340750000000, 0.00000000000000000000, 0.00000000000000000000, 0.00000000000000000000, 0.00000000000000000000, 0.00000000000000000000, 0.00000000000000000000, 0.00000000000000000000, 0.00000000000000000000, 0.00000000000000000000, 0.00000000000000000000, 0.00000000000000000000, 0.00000000000000000000, 0.00000000000000000000, 0.00000000000000000000, 0.00000000000000000000, 1.00000000000000000000, 1.00000000000000000000, 1668.00000000000000000000, 1679.00000000000000000000, 0.00000000000000000000
7.00000000000000000000, 0.00000000000000000000, 3375.38453284570410000000, 3952.82041616145350000000, 4105.64092524501760000000, 4138.46143726296490000000, 3823.07682959050820000000, 3828.71785509359280000000, 3829.23067559387300000000, 4256.92297282774050000000, 3795.38452257536570000000, 4277.43579283895720000000, 3727.69221653835070000000, 4106.66656624557890000000, 3993.33323568360670000000, 3845.64093160284660000000, 0.00000000000000000000, 0.00000000000000000000, 0.00000000000000000000, 0.00000000000000000000, 0.00000000000000000000, 0.00000000000000000000, 0.00000000000000000000, 0.00000000000000000000, 0.00000000000000000000, 0.00000000000000000000, 0.00000000000000000000, 0.00000000000000000000, 0.00000000000000000000, 0.00000000000000000000, 0.00000000000000000000, 1.00000000000000000000, 1.00000000000000000000, 1667.00000000000000000000, 1680.00000000000000000000, 0.00000000000000000000
8.00000000000000000000, 0.00000000000000000000, 3327.69222631962520000000, 3954.87169816257530000000, 4100.51272024221360000000, 4137.94861676268370000000, 3849.74349560508970000000, 3872.30759761742820000000, 3866.66657211434360000000, 4256.41015232746030000000, 3809.23067608293700000000, 4279.48707484007900000000, 3751.28195955124970000000, 4105.12810474473740000000, 3990.25631268192410000000, 3845.12811110256600000000, 0.00000000000000000000, 0.00000000000000000000, 0.00000000000000000000, 0.00000000000000000000, 0.00000000000000000000, 0.00000000000000000000, 0.00000000000000000000, 0.00000000000000000000, 0.00000000000000000000, 0.00000000000000000000, 0.00000000000000000000, 0.00000000000000000000, 0.00000000000000000000, 0.00000000000000000000, 0.00000000000000000000, 1.00000000000000000000, 1.00000000000000000000, 1669.00000000000000000000, 1680.00000000000000000000, 0.00000000000000000000
9.00000000000000000000, 0.00000000000000000000, 3304.61530380700650000000, 3958.46144166453810000000, 4104.10246374417690000000, 4136.41015526184310000000, 3942.05118565556500000000, 3984.10246667855930000000, 3978.46144117547460000000, 4255.38451132689990000000, 3896.92298163088800000000, 4279.48707484007900000000, 3842.56400860116400000000, 4111.28195074810260000000, 3988.20503068080230000000, 3846.66657260340750000000, 0.00000000000000000000, 0.00000000000000000000, 0.00000000000000000000, 0.00000000000000000000, 0.00000000000000000000, 0.00000000000000000000, 0.00000000000000000000, 0.00000000000000000000, 0.00000000000000000000, 0.00000000000000000000, 0.00000000000000000000, 0.00000000000000000000, 0.00000000000000000000, 0.00000000000000000000, 0.00000000000000000000, 1.00000000000000000000, 1.00000000000000000000, 1667.00000000000000000000, 1680.00000000000000000000, 0.00000000000000000000
10.00000000000000000000, 0.00000000000000000000, 3320.51273931569950000000, 3966.66656966902470000000, 4111.28195074810260000000, 4136.92297576212330000000, 4120.51271975315010000000, 4083.07682323267950000000, 4098.97425874137210000000, 4254.35887032633850000000, 3978.97426167575490000000, 4277.94861333923840000000, 4026.15374770155310000000, 4120.51271975315010000000, 3987.17938968024150000000, 3847.69221360396800000000, 0.00000000000000000000, 0.00000000000000000000, 0.00000000000000000000, 0.00000000000000000000, 0.00000000000000000000, 0.00000000000000000000, 0.00000000000000000000, 0.00000000000000000000, 0.00000000000000000000, 0.00000000000000000000, 0.00000000000000000000, 0.00000000000000000000, 0.00000000000000000000, 0.00000000000000000000, 0.00000000000000000000, 1.00000000000000000000, 1.00000000000000000000, 1669.00000000000000000000, 1680.00000000000000000000, 0.00000000000000000000
11.00000000000000000000, 0.00000000000000000000, 3358.46145633645030000000, 3976.41015917435290000000, 4116.41015575090660000000, 4140.51271926408660000000, 4283.58963884232250000000, 4254.87169082661880000000, 4285.12810034316410000000, 4255.89733182718010000000, 4106.66656624557890000000, 4283.58963884232250000000, 4197.43579479521210000000, 4121.53836075371050000000, 3994.87169718444780000000, 3846.15375210312690000000, 0.00000000000000000000, 0.00000000000000000000, 0.00000000000000000000, 0.00000000000000000000, 0.00000000000000000000, 0.00000000000000000000, 0.00000000000000000000, 0.00000000000000000000, 0.00000000000000000000, 0.00000000000000000000, 0.00000000000000000000, 0.00000000000000000000, 0.00000000000000000000, 0.00000000000000000000, 0.00000000000000000000, 1.00000000000000000000, 1.00000000000000000000, 1668.00000000000000000000, 1679.00000000000000000000, 0.00000000000000000000
12.00000000000000000000, 0.00000000000000000000, 3411.28196786533320000000, 3987.17938968024150000000, 4122.56400175427190000000, 4138.46143726296490000000, 4423.07681491859600000000, 4437.43578892644750000000, 4464.61527544130970000000, 4255.89733182718010000000, 4271.28194683559290000000, 4293.84604884793040000000, 4327.17938136615790000000, 4125.64092475595410000000, 4004.61528668977550000000, 3846.15375210312690000000, 0.00000000000000000000, 0.00000000000000000000, 0.00000000000000000000, 0.00000000000000000000, 0.00000000000000000000, 0.00000000000000000000, 0.00000000000000000000, 0.00000000000000000000, 0.00000000000000000000, 0.00000000000000000000, 0.00000000000000000000, 0.00000000000000000000, 0.00000000000000000000, 0.00000000000000000000, 0.00000000000000000000, 1.00000000000000000000, 1.00000000000000000000, 1668.00000000000000000000, 1680.00000000000000000000, 0.00000000000000000000
13.00000000000000000000, 0.00000000000000000000, 3447.69222338524290000000, 3997.43579968584980000000, 4126.15374525623430000000, 4137.43579626240350000000, 4529.23065847664200000000, 4501.02553096121940000000, 4533.84604297916580000000, 4252.30758832521680000000, 4332.30758636896190000000, 4296.41015134933330000000, 4431.28194292308220000000, 4134.35887326072130000000, 4004.10246618949530000000, 3847.17939310368770000000, 0.00000000000000000000, 0.00000000000000000000, 0.00000000000000000000, 0.00000000000000000000, 0.00000000000000000000, 0.00000000000000000000, 0.00000000000000000000, 0.00000000000000000000, 0.00000000000000000000, 0.00000000000000000000, 0.00000000000000000000, 0.00000000000000000000, 0.00000000000000000000, 0.00000000000000000000, 0.00000000000000000000, 1.00000000000000000000, 1.00000000000000000000, 1670.00000000000000000000, 1679.00000000000000000000, 0.00000000000000000000
14.00000000000000000000, 0.00000000000000000000, 3451.79478738748640000000, 4004.61528668977550000000, 4129.23066825791740000000, 4140.51271926408660000000, 4570.76911899935570000000, 4528.20501747608160000000, 4575.38450350187940000000, 4255.89733182718010000000, 4329.23066336727970000000, 4297.94861285017400000000, 4469.23065994383340000000, 4137.43579626240350000000, 4002.56400468865420000000, 3847.69221360396800000000, 0.00000000000000000000, 0.00000000000000000000, 0.00000000000000000000, 0.00000000000000000000, 0.00000000000000000000, 0.00000000000000000000, 0.00000000000000000000, 0.00000000000000000000, 0.00000000000000000000, 0.00000000000000000000, 0.00000000000000000000, 0.00000000000000000000, 0.00000000000000000000, 0.00000000000000000000, 0.00000000000000000000, 1.00000000000000000000, 1.00000000000000000000, 1669.00000000000000000000, 1680.00000000000000000000, 0.00000000000000000000
15.00000000000000000000, 0.00000000000000000000, 3444.61530038356070000000, 4002.05118418837360000000, 4129.23066825791740000000, 4141.02553976436680000000, 4498.97424896009760000000, 4539.48706848225080000000, 4591.79475951085350000000, 4260.51271632970380000000, 4282.05117734148100000000, 4298.46143335045510000000, 4390.76912340092990000000, 4131.79477075931940000000, 4006.15374819061710000000, 3849.74349560508970000000, 0.00000000000000000000, 0.00000000000000000000, 0.00000000000000000000, 0.00000000000000000000, 0.00000000000000000000, 0.00000000000000000000, 0.00000000000000000000, 0.00000000000000000000, 0.00000000000000000000, 0.00000000000000000000, 0.00000000000000000000, 0.00000000000000000000, 0.00000000000000000000, 0.00000000000000000000, 0.00000000000000000000, 1.00000000000000000000, 1.00000000000000000000, 1670.00000000000000000000, 1679.00000000000000000000, 0.00000000000000000000
16.00000000000000000000, 0.00000000000000000000, 3466.66658189561850000000, 3998.97426118669140000000, 4127.17938625679560000000, 4140.51271926408660000000, 4454.35886543570180000000, 4537.43578648112910000000, 4594.35886201225550000000, 4256.41015232746030000000, 4266.15374183278800000000, 4297.43579234989370000000, 4332.82040686924300000000, 4130.76912975875800000000, 4009.23067119229930000000, 3850.76913660565060000000, 0.00000000000000000000, 0.00000000000000000000, 0.00000000000000000000, 0.00000000000000000000, 0.00000000000000000000, 0.00000000000000000000, 0.00000000000000000000, 0.00000000000000000000, 0.00000000000000000000, 0.00000000000000000000, 0.00000000000000000000, 0.00000000000000000000, 0.00000000000000000000, 0.00000000000000000000, 0.00000000000000000000, 1.00000000000000000000, 1.00000000000000000000, 1670.00000000000000000000, 1679.00000000000000000000, 0.00000000000000000000
17.00000000000000000000, 0.00000000000000000000, 3512.82042692085590000000, 4000.51272268753250000000, 4128.20502725735610000000, 4142.05118076492730000000, 4476.41014694775910000000, 4507.17937696458470000000, 4575.38450350187940000000, 4253.84604982605830000000, 4281.53835684120080000000, 4298.97425385073530000000, 4351.79476537961820000000, 4135.89733476156290000000, 4014.35887619510370000000, 3848.20503410424860000000, 0.00000000000000000000, 0.00000000000000000000, 0.00000000000000000000, 0.00000000000000000000, 0.00000000000000000000, 0.00000000000000000000, 0.00000000000000000000, 0.00000000000000000000, 0.00000000000000000000, 0.00000000000000000000, 0.00000000000000000000, 0.00000000000000000000, 0.00000000000000000000, 0.00000000000000000000, 0.00000000000000000000, 1.00000000000000000000, 1.00000000000000000000, 1671.00000000000000000000, 1678.00000000000000000000, 0.00000000000000000000
18.00000000000000000000, 0.00000000000000000000, 3585.64093796067530000000, 3997.43579968584980000000, 4129.74348875819760000000, 4146.15374476717080000000, 4428.20501992140000000000, 4483.07681345140460000000, 4547.69219648673700000000, 4257.94861382830190000000, 4287.17938234428580000000, 4300.51271535157590000000, 4305.12809985409970000000, 4133.84605276044110000000, 4027.17938870211400000000, 3847.17939310368770000000, 0.00000000000000000000, 0.00000000000000000000, 0.00000000000000000000, 0.00000000000000000000, 0.00000000000000000000, 0.00000000000000000000, 0.00000000000000000000, 0.00000000000000000000, 0.00000000000000000000, 0.00000000000000000000, 0.00000000000000000000, 0.00000000000000000000, 0.00000000000000000000, 0.00000000000000000000, 0.00000000000000000000, 1.00000000000000000000, 1.00000000000000000000, 1673.00000000000000000000, 1678.00000000000000000000, 0.00000000000000000000
19.00000000000000000000, 0.00000000000000000000, 3664.10247450357880000000, 3995.38451768472810000000, 4131.28195025903910000000, 4147.17938576773120000000, 4415.38450741439010000000, 4431.79476342336330000000, 4487.17937745364820000000, 4256.92297282774050000000, 4314.87168935942830000000, 4301.02553585185710000000, 4273.33322883671460000000, 4130.76912975875800000000, 4036.41015770716150000000, 3848.71785460452880000000, 0.00000000000000000000, 0.00000000000000000000, 0.00000000000000000000, 0.00000000000000000000, 0.00000000000000000000, 0.00000000000000000000, 0.00000000000000000000, 0.00000000000000000000, 0.00000000000000000000, 0.00000000000000000000, 0.00000000000000000000, 0.00000000000000000000, 0.00000000000000000000, 0.00000000000000000000, 0.00000000000000000000, 1.00000000000000000000, 1.00000000000000000000, 1673.00000000000000000000, 1678.00000000000000000000, 0.00000000000000000000
20.00000000000000000000, 0.00000000000000000000, 3739.48708804480020000000, 3995.38451768472810000000, 4133.33323226016000000000, 4147.17938576773120000000, 4465.64091644187010000000, 4331.28194536840150000000, 4386.15373889840610000000, 4253.33322932577810000000, 4383.07681589672300000000, 4302.05117685241750000000, 4314.87168935942830000000, 4133.33323226016000000000, 4041.02554220968520000000, 3847.17939310368770000000, 0.00000000000000000000, 0.00000000000000000000, 0.00000000000000000000, 0.00000000000000000000, 0.00000000000000000000, 0.00000000000000000000, 0.00000000000000000000, 0.00000000000000000000, 0.00000000000000000000, 0.00000000000000000000, 0.00000000000000000000, 0.00000000000000000000, 0.00000000000000000000, 0.00000000000000000000, 0.00000000000000000000, 1.00000000000000000000, 1.00000000000000000000, 1674.00000000000000000000, 1679.00000000000000000000, 0.00000000000000000000
21.00000000000000000000, 0.00000000000000000000, 3797.43580457648750000000, 3993.84605618388700000000, 4134.87169376100160000000, 4151.28194976997470000000, 4469.23065994383340000000, 4275.89733133811660000000, 4328.71784286699950000000, 4256.41015232746030000000, 4410.76912291186640000000, 4302.56399735269770000000, 4310.25630485690450000000, 4135.38451426128180000000, 4047.17938821305050000000, 3846.15375210312690000000, 0.00000000000000000000, 0.00000000000000000000, 0.00000000000000000000, 0.00000000000000000000, 0.00000000000000000000, 0.00000000000000000000, 0.00000000000000000000, 0.00000000000000000000, 0.00000000000000000000, 0.00000000000000000000, 0.00000000000000000000, 0.00000000000000000000, 0.00000000000000000000, 0.00000000000000000000, 0.00000000000000000000, 1.00000000000000000000, 1.00000000000000000000, 1674.00000000000000000000, 1678.00000000000000000000, 0.00000000000000000000
22.00000000000000000000, 0.00000000000000000000, 3862.56400811210010000000, 3996.41015868528890000000, 4136.41015526184310000000, 4155.38451377221830000000, 4509.74347946598660000000, 4287.69220284456610000000, 4329.23066336727970000000, 4256.92297282774050000000, 4483.07681345140460000000, 4305.12809985409970000000, 4331.79476586868170000000, 4132.30759125959960000000, 4057.43579821865890000000, 3847.69221360396800000000, 0.00000000000000000000, 0.00000000000000000000, 0.00000000000000000000, 0.00000000000000000000, 0.00000000000000000000, 0.00000000000000000000, 0.00000000000000000000, 0.00000000000000000000, 0.00000000000000000000, 0.00000000000000000000, 0.00000000000000000000, 0.00000000000000000000, 0.00000000000000000000, 0.00000000000000000000, 0.00000000000000000000, 1.00000000000000000000, 1.00000000000000000000, 1673.00000000000000000000, 1679.00000000000000000000, 0.00000000000000000000
23.00000000000000000000, 0.00000000000000000000, 3949.23067265949070000000, 3999.99990218725180000000, 4151.28194976997470000000, 4153.84605227137670000000, 4591.28193901057240000000, 4311.79476635774520000000, 4351.79476537961820000000, 4254.35887032633850000000, 4704.10244907226480000000, 4316.41015086026890000000, 4425.64091741999800000000, 4132.82041175987980000000, 4069.23066972510830000000, 3847.69221360396800000000, 0.00000000000000000000, 0.00000000000000000000, 0.00000000000000000000, 0.00000000000000000000, 0.00000000000000000000, 0.00000000000000000000, 0.00000000000000000000, 0.00000000000000000000, 0.00000000000000000000, 0.00000000000000000000, 0.00000000000000000000, 0.00000000000000000000, 0.00000000000000000000, 0.00000000000000000000, 0.00000000000000000000, 1.00000000000000000000, 1.00000000000000000000, 1673.00000000000000000000, 1678.00000000000000000000, 0.00000000000000000000
24.00000000000000000000, 0.00000000000000000000, 4048.20502921361140000000, 4004.10246618949530000000, 4163.58964177670530000000, 4154.87169327193810000000, 4740.51270459217360000000, 4388.20502089952790000000, 4441.02553242841080000000, 4256.92297282774050000000, 4908.71782868415080000000, 4325.64091986531640000000, 4583.07681100608620000000, 4139.99989876380550000000, 4083.07682323267950000000, 3847.69221360396800000000, 0.00000000000000000000, 0.00000000000000000000, 0.00000000000000000000, 0.00000000000000000000, 0.00000000000000000000, 0.00000000000000000000, 0.00000000000000000000, 0.00000000000000000000, 0.00000000000000000000, 0.00000000000000000000, 0.00000000000000000000, 0.00000000000000000000, 0.00000000000000000000, 0.00000000000000000000, 0.00000000000000000000, 1.00000000000000000000, 1.00000000000000000000, 1674.00000000000000000000, 1677.00000000000000000000, 0.00000000000000000000
25.00000000000000000000, 0.00000000000000000000, 4124.61528375539360000000, 4015.38451719566460000000, 4170.25630828035080000000, 4159.48707777446180000000, 4933.33321269761110000000, 4467.17937794271170000000, 4522.05117147271630000000, 4257.43579332802160000000, 5064.10244026911730000000, 4331.79476586868170000000, 4756.41014010086660000000, 4149.74348826913410000000, 4091.79477173744680000000, 3850.25631610537040000000, 0.00000000000000000000, 0.00000000000000000000, 0.00000000000000000000, 0.00000000000000000000, 0.00000000000000000000, 0.00000000000000000000, 0.00000000000000000000, 0.00000000000000000000, 0.00000000000000000000, 0.00000000000000000000, 0.00000000000000000000, 0.00000000000000000000, 0.00000000000000000000, 0.00000000000000000000, 0.00000000000000000000, 1.00000000000000000000, 1.00000000000000000000, 1675.00000000000000000000, 1674.00000000000000000000, 0.00000000000000000000
26.00000000000000000000, 0.00000000000000000000, 4174.87169278287460000000, 4026.66656820183380000000, 4176.92297478399540000000, 4159.48707777446180000000, 5071.79474777332330000000, 4568.71783699823390000000, 4626.66655352992170000000, 4256.41015232746030000000, 5196.92294984174530000000, 4337.43579137176680000000, 4894.35885467629940000000, 4155.38451377221830000000, 4095.89733573968990000000, 3850.76913660565060000000, 0.00000000000000000000, 0.00000000000000000000, 0.00000000000000000000, 0.00000000000000000000, 0.00000000000000000000, 0.00000000000000000000, 0.00000000000000000000, 0.00000000000000000000, 0.00000000000000000000, 0.00000000000000000000, 0.00000000000000000000, 0.00000000000000000000, 0.00000000000000000000, 0.00000000000000000000, 0.00000000000000000000, 1.00000000000000000000, 1.00000000000000000000, 1674.00000000000000000000, 1676.00000000000000000000, 0.00000000000000000000
27.00000000000000000000, 0.00000000000000000000, 4217.43579430614860000000, 4032.82041420519860000000, 4186.66656428932400000000, 4158.97425727418160000000, 5194.87166784062360000000, 4694.35885956693620000000, 4770.76911410871890000000, 4257.94861382830190000000, 5354.35884342783270000000, 4343.58963737513110000000, 5043.07679975762040000000, 4160.51271877502220000000, 4102.56400224333540000000, 3849.23067510480950000000, 0.00000000000000000000, 0.00000000000000000000, 0.00000000000000000000, 0.00000000000000000000, 0.00000000000000000000, 0.00000000000000000000, 0.00000000000000000000, 0.00000000000000000000, 0.00000000000000000000, 0.00000000000000000000, 0.00000000000000000000, 0.00000000000000000000, 0.00000000000000000000, 0.00000000000000000000, 0.00000000000000000000, 1.00000000000000000000, 1.00000000000000000000, 1675.00000000000000000000, 1676.00000000000000000000, 0.00000000000000000000
28.00000000000000000000, 0.00000000000000000000, 4280.51271584064030000000, 4037.94861920800300000000, 4189.23066679072600000000, 4158.97425727418160000000, 5289.23063989222010000000, 4816.92295913395630000000, 4903.07680318106580000000, 4257.43579332802160000000, 5413.84602146036100000000, 4347.17938087709440000000, 5141.02551531117930000000, 4164.61528277726570000000, 4110.25630974754130000000, 3850.76913660565060000000, 0.00000000000000000000, 0.00000000000000000000, 0.00000000000000000000, 0.00000000000000000000, 0.00000000000000000000, 0.00000000000000000000, 0.00000000000000000000, 0.00000000000000000000, 0.00000000000000000000, 0.00000000000000000000, 0.00000000000000000000, 0.00000000000000000000, 0.00000000000000000000, 0.00000000000000000000, 0.00000000000000000000, 1.00000000000000000000, 1.00000000000000000000, 1674.00000000000000000000, 1678.00000000000000000000, 0.00000000000000000000
29.00000000000000000000, 0.00000000000000000000, 4372.82040589111510000000, 4049.23067021417180000000, 4195.89733329437150000000, 4159.48707777446180000000, 5489.23063500158240000000, 4943.58962270321900000000, 5031.79474875145120000000, 4254.87169082661880000000, 5587.69217105542250000000, 4352.82040638017860000000, 5326.15371591241000000000, 4169.23066727978950000000, 4119.48707875258880000000, 3853.33323910705260000000, 0.00000000000000000000, 0.00000000000000000000, 0.00000000000000000000, 0.00000000000000000000, 0.00000000000000000000, 0.00000000000000000000, 0.00000000000000000000, 0.00000000000000000000, 0.00000000000000000000, 0.00000000000000000000, 0.00000000000000000000, 0.00000000000000000000, 0.00000000000000000000, 0.00000000000000000000, 0.00000000000000000000, 1.00000000000000000000, 1.00000000000000000000, 1675.00000000000000000000, 1680.00000000000000000000, 0.00000000000000000000
30.00000000000000000000, 0.00000000000000000000, 4471.28194194495520000000, 4057.94861871893910000000, 4203.07682029829720000000, 4160.51271877502220000000, 5559.48704353999980000000, 5029.23064625004920000000, 5110.25628529435470000000, 4255.38451132689990000000, 5689.74345061122590000000, 4356.92297038242210000000, 5414.35884196064220000000, 4174.87169278287460000000, 4132.82041175987980000000, 3851.79477760621150000000, 0.00000000000000000000, 0.00000000000000000000, 0.00000000000000000000, 0.00000000000000000000, 0.00000000000000000000, 0.00000000000000000000, 0.00000000000000000000, 0.00000000000000000000, 0.00000000000000000000, 0.00000000000000000000, 0.00000000000000000000, 0.00000000000000000000, 0.00000000000000000000, 0.00000000000000000000, 0.00000000000000000000, 1.00000000000000000000, 1.00000000000000000000, 1674.00000000000000000000, 1678.00000000000000000000, 0.00000000000000000000
31.00000000000000000000, 0.00000000000000000000, 4582.56399050580600000000, 4065.64092622314550000000, 4204.61528179913880000000, 4164.61528277726570000000, 5706.15370662019900000000, 5115.89731079743890000000, 5217.94859035324230000000, 4256.92297282774050000000, 5826.66652418609740000000, 4361.02553438466570000000, 5550.25627453495240000000, 4182.56400028708050000000, 4148.71784726857280000000, 3851.28195710593130000000, 0.00000000000000000000, 0.00000000000000000000, 0.00000000000000000000, 0.00000000000000000000, 0.00000000000000000000, 0.00000000000000000000, 0.00000000000000000000, 0.00000000000000000000, 0.00000000000000000000, 0.00000000000000000000, 0.00000000000000000000, 0.00000000000000000000, 0.00000000000000000000, 0.00000000000000000000, 0.00000000000000000000, 1.00000000000000000000, 1.00000000000000000000, 1673.00000000000000000000, 1679.00000000000000000000, 0.00000000000000000000
32.00000000000000000000, 0.00000000000000000000, 4691.28193656525400000000, 4072.30759272679100000000, 4212.30758930334470000000, 4169.23066727978950000000, 5849.74344669871610000000, 5183.07679633417410000000, 5298.97422939754780000000, 4256.92297282774050000000, 6022.56395529321620000000, 4368.71784188887160000000, 5708.20498862132080000000, 4189.23066679072600000000, 4161.53835977558360000000, 3853.84605960733320000000, 0.00000000000000000000, 0.00000000000000000000, 0.00000000000000000000, 0.00000000000000000000, 0.00000000000000000000, 0.00000000000000000000, 0.00000000000000000000, 0.00000000000000000000, 0.00000000000000000000, 0.00000000000000000000, 0.00000000000000000000, 0.00000000000000000000, 0.00000000000000000000, 0.00000000000000000000, 0.00000000000000000000, 1.00000000000000000000, 1.00000000000000000000, 1673.00000000000000000000, 1679.00000000000000000000, 0.00000000000000000000
33.00000000000000000000, 0.00000000000000000000, 4752.82039659890420000000, 4073.84605422763210000000, 4216.41015330558820000000, 4169.74348778006970000000, 5830.25626768805980000000, 5158.46141232071390000000, 5276.41012738520930000000, 4256.92297282774050000000, 6032.82036529882500000000, 4371.79476489055470000000, 5675.89729710365460000000, 4188.71784629044580000000, 4167.17938527866770000000, 3853.33323910705260000000, 0.00000000000000000000, 0.00000000000000000000, 0.00000000000000000000, 0.00000000000000000000, 0.00000000000000000000, 0.00000000000000000000, 0.00000000000000000000, 0.00000000000000000000, 0.00000000000000000000, 0.00000000000000000000, 0.00000000000000000000, 0.00000000000000000000, 0.00000000000000000000, 0.00000000000000000000, 0.00000000000000000000, 1.00000000000000000000, 1.00000000000000000000, 1672.00000000000000000000, 1680.00000000000000000000, 0.00000000000000000000
34.00000000000000000000, 0.00000000000000000000, 4729.23065358600520000000, 4073.84605422763210000000, 4211.28194830278330000000, 4169.23066727978950000000, 5808.20498617600240000000, 5020.51269774528190000000, 5169.23064282660290000000, 4255.38451132689990000000, 5907.69216323040290000000, 4367.69220088831120000000, 5604.10242706439570000000, 4185.64092328876270000000, 4160.51271877502220000000, 3851.79477760621150000000, 0.00000000000000000000, 0.00000000000000000000, 0.00000000000000000000, 0.00000000000000000000, 0.00000000000000000000, 0.00000000000000000000, 0.00000000000000000000, 0.00000000000000000000, 0.00000000000000000000, 0.00000000000000000000, 0.00000000000000000000, 0.00000000000000000000, 0.00000000000000000000, 0.00000000000000000000, 0.00000000000000000000, 1.00000000000000000000, 1.00000000000000000000, 1672.00000000000000000000, 1680.00000000000000000000, 0.00000000000000000000
35.00000000000000000000, 0.00000000000000000000, 4688.20501356357180000000, 4068.71784922482770000000, 4208.20502530110120000000, 4170.76912878063100000000, 5825.12806268525580000000, 4871.79475266396090000000, 5036.92295375425510000000, 4254.35887032633850000000, 5889.23062522030800000000, 4363.58963688606760000000, 5581.02550455177700000000, 4186.15374378904290000000, 4151.28194976997470000000, 3853.84605960733320000000, 0.00000000000000000000, 0.00000000000000000000, 0.00000000000000000000, 0.00000000000000000000, 0.00000000000000000000, 0.00000000000000000000, 0.00000000000000000000, 0.00000000000000000000, 0.00000000000000000000, 0.00000000000000000000, 0.00000000000000000000, 0.00000000000000000000, 0.00000000000000000000, 0.00000000000000000000, 0.00000000000000000000, 1.00000000000000000000, 1.00000000000000000000, 1670.00000000000000000000, 1681.00000000000000000000, 0.00000000000000000000
36.00000000000000000000, 0.00000000000000000000, 4668.20501405263530000000, 4056.41015721809800000000, 4211.79476880306450000000, 4171.28194928091120000000, 5692.30755311262780000000, 4771.79475510927930000000, 4926.66654619396560000000, 4251.79476782493660000000, 5876.41011271329720000000, 4363.58963688606760000000, 5492.82037850354570000000, 4183.58964128764090000000, 4150.76912926969450000000, 3854.87170060789410000000, 0.00000000000000000000, 0.00000000000000000000, 0.00000000000000000000, 0.00000000000000000000, 0.00000000000000000000, 0.00000000000000000000, 0.00000000000000000000, 0.00000000000000000000, 0.00000000000000000000, 0.00000000000000000000, 0.00000000000000000000, 0.00000000000000000000, 0.00000000000000000000, 0.00000000000000000000, 0.00000000000000000000, 1.00000000000000000000, 1.00000000000000000000, 1671.00000000000000000000, 1681.00000000000000000000, 0.00000000000000000000
37.00000000000000000000, 0.00000000000000000000, 4701.53834657086190000000, 4052.30759321585450000000, 4211.28194830278330000000, 4171.79476978119150000000, 5719.48703962749000000000, 4696.92296206833820000000, 4855.89731715526800000000, 4250.76912682437610000000, 5863.58960020628730000000, 4365.64091888718940000000, 5463.07678948728150000000, 4177.43579528427650000000, 4158.46143677390050000000, 3856.41016210873520000000, 0.00000000000000000000, 0.00000000000000000000, 0.00000000000000000000, 0.00000000000000000000, 0.00000000000000000000, 0.00000000000000000000, 0.00000000000000000000, 0.00000000000000000000, 0.00000000000000000000, 0.00000000000000000000, 0.00000000000000000000, 0.00000000000000000000, 0.00000000000000000000, 0.00000000000000000000, 0.00000000000000000000, 1.00000000000000000000, 1.00000000000000000000, 1670.00000000000000000000, 1682.00000000000000000000, 0.00000000000000000000
38.00000000000000000000, 0.00000000000000000000, 4784.61526761629010000000, 4070.76913122594940000000, 4214.87169180474670000000, 4174.87169278287460000000, 6067.69215931789310000000, 4728.71783308572410000000, 4905.64090568246870000000, 4250.76912682437610000000, 6101.53831233640080000000, 4372.30758539083490000000, 5630.76909307897770000000, 4183.58964128764090000000, 4167.69220577894790000000, 3861.02554661125900000000, 0.00000000000000000000, 0.00000000000000000000, 0.00000000000000000000, 0.00000000000000000000, 0.00000000000000000000, 0.00000000000000000000, 0.00000000000000000000, 0.00000000000000000000, 0.00000000000000000000, 0.00000000000000000000, 0.00000000000000000000, 0.00000000000000000000, 0.00000000000000000000, 0.00000000000000000000, 0.00000000000000000000, 1.00000000000000000000, 1.00000000000000000000, 1671.00000000000000000000, 1681.00000000000000000000, 0.00000000000000000000
39.00000000000000000000, 0.00000000000000000000, 4894.35885467629940000000, 4083.58964373295980000000, 4221.53835830839220000000, 4176.92297478399540000000, 6232.82036040818730000000, 4822.56398463704040000000, 4976.41013472116540000000, 4251.79476782493660000000, 6281.53830793482670000000, 4375.38450839251710000000, 5755.38447464711950000000, 4192.82041029268840000000, 4181.53835928651920000000, 3862.56400811210010000000, 0.00000000000000000000, 0.00000000000000000000, 0.00000000000000000000, 0.00000000000000000000, 0.00000000000000000000, 0.00000000000000000000, 0.00000000000000000000, 0.00000000000000000000, 0.00000000000000000000, 0.00000000000000000000, 0.00000000000000000000, 0.00000000000000000000, 0.00000000000000000000, 0.00000000000000000000, 0.00000000000000000000, 1.00000000000000000000, 1.00000000000000000000, 1669.00000000000000000000, 1682.00000000000000000000, 0.00000000000000000000
40.00000000000000000000, 0.00000000000000000000, 4969.23064771723970000000, 4083.07682323267950000000, 4223.58964030951390000000, 4177.43579528427650000000, 6367.69215198193710000000, 4774.87167811096150000000, 4917.43577718891810000000, 4251.79476782493660000000, 6350.76907547268270000000, 4377.43579039363890000000, 5905.12806072900090000000, 4199.48707679633390000000, 4190.76912829156750000000, 3859.48708511041790000000, 0.00000000000000000000, 0.00000000000000000000, 0.00000000000000000000, 0.00000000000000000000, 0.00000000000000000000, 0.00000000000000000000, 0.00000000000000000000, 0.00000000000000000000, 0.00000000000000000000, 0.00000000000000000000, 0.00000000000000000000, 0.00000000000000000000, 0.00000000000000000000, 0.00000000000000000000, 0.00000000000000000000, 1.00000000000000000000, 1.00000000000000000000, 1670.00000000000000000000, 1683.00000000000000000000, 0.00000000000000000000
41.00000000000000000000, 0.00000000000000000000, 4988.71782672789600000000, 4087.69220773520330000000, 4223.58964030951390000000, 4180.51271828595870000000, 6505.12804605708880000000, 4775.38449861124260000000, 4937.94859720013480000000, 4249.74348582381480000000, 6428.20497101502590000000, 4381.53835439588240000000, 6066.15369781705160000000, 4210.25630730222290000000, 4191.28194879184780000000, 3855.89734160845500000000, 0.00000000000000000000, 0.00000000000000000000, 0.00000000000000000000, 0.00000000000000000000, 0.00000000000000000000, 0.00000000000000000000, 0.00000000000000000000, 0.00000000000000000000, 0.00000000000000000000, 0.00000000000000000000, 0.00000000000000000000, 0.00000000000000000000, 0.00000000000000000000, 0.00000000000000000000, 0.00000000000000000000, 1.00000000000000000000, 1.00000000000000000000, 1669.00000000000000000000, 1680.00000000000000000000, 0.00000000000000000000
42.00000000000000000000, 0.00000000000000000000, 4949.74346870658430000000, 4085.64092573408150000000, 4223.07681980923370000000, 4176.41015428371520000000, 6228.20497590566360000000, 4771.28193460899910000000, 4922.56398219172210000000, 4249.23066532353460000000, 6351.79471647324410000000, 4381.02553389560220000000, 5786.66652516422440000000, 4206.66656380025960000000, 4183.58964128764090000000, 3852.82041860677240000000, 0.00000000000000000000, 0.00000000000000000000, 0.00000000000000000000, 0.00000000000000000000, 0.00000000000000000000, 0.00000000000000000000, 0.00000000000000000000, 0.00000000000000000000, 0.00000000000000000000, 0.00000000000000000000, 0.00000000000000000000, 0.00000000000000000000, 0.00000000000000000000, 0.00000000000000000000, 0.00000000000000000000, 1.00000000000000000000, 1.00000000000000000000, 1669.00000000000000000000, 1682.00000000000000000000, 0.00000000000000000000
43.00000000000000000000, 0.00000000000000000000, 4891.28193167461630000000, 4073.33323372735140000000, 4222.05117880867240000000, 4173.84605178231320000000, 5954.87164925620160000000, 4817.94860013451670000000, 4955.89731470994960000000, 4253.33322932577810000000, 6193.84600238687560000000, 4374.87168789223690000000, 5516.92294201672480000000, 4188.71784629044580000000, 4174.35887228259340000000, 3850.25631610537040000000, 0.00000000000000000000, 0.00000000000000000000, 0.00000000000000000000, 0.00000000000000000000, 0.00000000000000000000, 0.00000000000000000000, 0.00000000000000000000, 0.00000000000000000000, 0.00000000000000000000, 0.00000000000000000000, 0.00000000000000000000, 0.00000000000000000000, 0.00000000000000000000, 0.00000000000000000000, 0.00000000000000000000, 1.00000000000000000000, 1.00000000000000000000, 1670.00000000000000000000, 1680.00000000000000000000, 0.00000000000000000000
44.00000000000000000000, 0.00000000000000000000, 4858.46141965666990000000, 4072.82041322707120000000, 4222.56399930895260000000, 4175.89733378343500000000, 5918.97421423657220000000, 4913.33321318667460000000, 5045.12808175874120000000, 4257.43579332802160000000, 6159.99984936836790000000, 4373.84604689167550000000, 5580.51268405149680000000, 4184.61528228820230000000, 4168.71784677950930000000, 3849.23067510480950000000, 0.00000000000000000000, 0.00000000000000000000, 0.00000000000000000000, 0.00000000000000000000, 0.00000000000000000000, 0.00000000000000000000, 0.00000000000000000000, 0.00000000000000000000, 0.00000000000000000000, 0.00000000000000000000, 0.00000000000000000000, 0.00000000000000000000, 0.00000000000000000000, 0.00000000000000000000, 0.00000000000000000000, 1.00000000000000000000, 1.00000000000000000000, 1668.00000000000000000000, 1680.00000000000000000000, 0.00000000000000000000
45.00000000000000000000, 0.00000000000000000000, 4833.84603564320970000000, 4071.79477222651030000000, 4219.99989680755060000000, 4175.38451328315480000000, 5790.76908916646790000000, 4977.43577572172670000000, 5106.66654179239140000000, 4254.35887032633850000000, 6112.30754284228900000000, 4376.92296989335860000000, 5582.56396605261850000000, 4186.15374378904290000000, 4165.64092377782710000000, 3850.25631610537040000000, 0.00000000000000000000, 0.00000000000000000000, 0.00000000000000000000, 0.00000000000000000000, 0.00000000000000000000, 0.00000000000000000000, 0.00000000000000000000, 0.00000000000000000000, 0.00000000000000000000, 0.00000000000000000000, 0.00000000000000000000, 0.00000000000000000000, 0.00000000000000000000, 0.00000000000000000000, 0.00000000000000000000, 1.00000000000000000000, 1.00000000000000000000, 1669.00000000000000000000, 1679.00000000000000000000, 0.00000000000000000000
46.00000000000000000000, 0.00000000000000000000, 4812.82039513171280000000, 4066.15374672342570000000, 4218.46143530671000000000, 4174.35887228259340000000, 5719.99986012777030000000, 5011.28192874023440000000, 5146.66654081426440000000, 4252.30758832521680000000, 6041.02549330331110000000, 4374.87168789223690000000, 5551.79473603579390000000, 4183.58964128764090000000, 4164.61528277726570000000, 3852.82041860677240000000, 0.00000000000000000000, 0.00000000000000000000, 0.00000000000000000000, 0.00000000000000000000, 0.00000000000000000000, 0.00000000000000000000, 0.00000000000000000000, 0.00000000000000000000, 0.00000000000000000000, 0.00000000000000000000, 0.00000000000000000000, 0.00000000000000000000, 0.00000000000000000000, 0.00000000000000000000, 0.00000000000000000000, 1.00000000000000000000, 1.00000000000000000000, 1669.00000000000000000000, 1679.00000000000000000000, 0.00000000000000000000
47.00000000000000000000, 0.00000000000000000000, 4802.56398512610490000000, 4068.71784922482770000000, 4218.46143530671000000000, 4173.84605178231320000000, 5780.51267916086000000000, 5021.02551824556210000000, 5153.84602781819010000000, 4254.35887032633850000000, 6031.28190379798340000000, 4371.28194439027360000000, 5581.53832505205810000000, 4183.07682078736070000000, 4162.56400077614400000000, 3851.79477760621150000000, 0.00000000000000000000, 0.00000000000000000000, 0.00000000000000000000, 0.00000000000000000000, 0.00000000000000000000, 0.00000000000000000000, 0.00000000000000000000, 0.00000000000000000000, 0.00000000000000000000, 0.00000000000000000000, 0.00000000000000000000, 0.00000000000000000000, 0.00000000000000000000, 0.00000000000000000000, 0.00000000000000000000, 1.00000000000000000000, 1.00000000000000000000, 1669.00000000000000000000, 1678.00000000000000000000, 0.00000000000000000000
48.00000000000000000000, 0.00000000000000000000, 4811.28193363087120000000, 4071.79477222651030000000, 4215.89733280530710000000, 4173.84605178231320000000, 5756.92293614796020000000, 5071.28192727304300000000, 5212.30756485015720000000, 4253.84604982605830000000, 6002.56395578227970000000, 4367.69220088831120000000, 5596.92294006047000000000, 4182.56400028708050000000, 4162.56400077614400000000, 3849.74349560508970000000, 0.00000000000000000000, 0.00000000000000000000, 0.00000000000000000000, 0.00000000000000000000, 0.00000000000000000000, 0.00000000000000000000, 0.00000000000000000000, 0.00000000000000000000, 0.00000000000000000000, 0.00000000000000000000, 0.00000000000000000000, 0.00000000000000000000, 0.00000000000000000000, 0.00000000000000000000, 0.00000000000000000000, 1.00000000000000000000, 1.00000000000000000000, 1668.00000000000000000000, 1680.00000000000000000000, 0.00000000000000000000
49.00000000000000000000, 0.00000000000000000000, 4814.35885663255430000000, 4069.74349022538850000000, 4214.35887130446640000000, 4173.33323128203300000000, 5801.53831967235690000000, 5069.23064527192130000000, 5238.97423086473920000000, 4255.38451132689990000000, 6010.76908378676670000000, 4369.74348288943290000000, 5651.28191309019440000000, 4182.56400028708050000000, 4165.64092377782710000000, 3851.28195710593130000000, 0.00000000000000000000, 0.00000000000000000000, 0.00000000000000000000, 0.00000000000000000000, 0.00000000000000000000, 0.00000000000000000000, 0.00000000000000000000, 0.00000000000000000000, 0.00000000000000000000, 0.00000000000000000000, 0.00000000000000000000, 0.00000000000000000000, 0.00000000000000000000, 0.00000000000000000000, 0.00000000000000000000, 1.00000000000000000000, 1.00000000000000000000, 1670.00000000000000000000, 1680.00000000000000000000, 0.00000000000000000000
50.00000000000000000000, 0.00000000000000000000, 4825.12808713844240000000, 4068.71784922482770000000, 4215.89733280530710000000, 4175.89733378343500000000, 5819.48703718217170000000, 5008.20500573855130000000, 5191.79474483894140000000, 4256.41015232746030000000, 6006.15369928424300000000, 4372.82040589111510000000, 5637.94858008290340000000, 4184.61528228820230000000, 4167.69220577894790000000, 3851.28195710593130000000, 0.00000000000000000000, 0.00000000000000000000, 0.00000000000000000000, 0.00000000000000000000, 0.00000000000000000000, 0.00000000000000000000, 0.00000000000000000000, 0.00000000000000000000, 0.00000000000000000000, 0.00000000000000000000, 0.00000000000000000000, 0.00000000000000000000, 0.00000000000000000000, 0.00000000000000000000, 0.00000000000000000000, 1.00000000000000000000, 1.00000000000000000000, 1669.00000000000000000000, 1679.00000000000000000000, 0.00000000000000000000
51.00000000000000000000, 0.00000000000000000000, 4825.12808713844240000000, 4068.71784922482770000000, 4214.35887130446640000000, 4176.92297478399540000000, 5837.43575469198550000000, 4912.82039268639440000000, 5109.74346479407450000000, 4256.92297282774050000000, 5988.20498177442820000000, 4369.74348288943290000000, 5599.99986306215310000000, 4186.15374378904290000000, 4166.15374427810730000000, 3849.74349560508970000000, 0.00000000000000000000, 0.00000000000000000000, 0.00000000000000000000, 0.00000000000000000000, 0.00000000000000000000, 0.00000000000000000000, 0.00000000000000000000, 0.00000000000000000000, 0.00000000000000000000, 0.00000000000000000000, 0.00000000000000000000, 0.00000000000000000000, 0.00000000000000000000, 0.00000000000000000000, 0.00000000000000000000, 1.00000000000000000000, 1.00000000000000000000, 1670.00000000000000000000, 1680.00000000000000000000, 0.00000000000000000000
52.00000000000000000000, 0.00000000000000000000, 4812.82039513171280000000, 4066.66656722370640000000, 4213.33323030390510000000, 4175.38451328315480000000, 5824.61524218497560000000, 4779.99988311376640000000, 4981.53833972397020000000, 4255.89733182718010000000, 5991.79472527639150000000, 4367.69220088831120000000, 5545.12806953214840000000, 4182.56400028708050000000, 4164.10246227698550000000, 3851.28195710593130000000, 0.00000000000000000000, 0.00000000000000000000, 0.00000000000000000000, 0.00000000000000000000, 0.00000000000000000000, 0.00000000000000000000, 0.00000000000000000000, 0.00000000000000000000, 0.00000000000000000000, 0.00000000000000000000, 0.00000000000000000000, 0.00000000000000000000, 0.00000000000000000000, 0.00000000000000000000, 0.00000000000000000000, 1.00000000000000000000, 1.00000000000000000000, 1670.00000000000000000000, 1679.00000000000000000000, 0.00000000000000000000
53.00000000000000000000, 0.00000000000000000000, 4783.07680611544860000000, 4056.41015721809800000000, 4212.82040980362490000000, 4174.35887228259340000000, 5687.69216861010410000000, 4652.82039904422250000000, 4843.58962514853740000000, 4253.84604982605830000000, 5934.35882924498490000000, 4367.17938038803090000000, 5438.46140547382130000000, 4176.92297478399540000000, 4157.43579577334000000000, 3858.97426461013720000000, 0.00000000000000000000, 0.00000000000000000000, 0.00000000000000000000, 0.00000000000000000000, 0.00000000000000000000, 0.00000000000000000000, 0.00000000000000000000, 0.00000000000000000000, 0.00000000000000000000, 0.00000000000000000000, 0.00000000000000000000, 0.00000000000000000000, 0.00000000000000000000, 0.00000000000000000000, 0.00000000000000000000, 1.00000000000000000000, 1.00000000000000000000, 1670.00000000000000000000, 1681.00000000000000000000, 0.00000000000000000000
54.00000000000000000000, 0.00000000000000000000, 4765.64090910591400000000, 4047.69220871333070000000, 4210.25630730222290000000, 4171.28194928091120000000, 5642.56396458542710000000, 4582.05117000552490000000, 4754.35885809974570000000, 4254.35887032633850000000, 5916.92293223545040000000, 4368.20502138859140000000, 5367.69217643512370000000, 4177.43579528427650000000, 4153.84605227137670000000, 3866.66657211434360000000, 0.00000000000000000000, 0.00000000000000000000, 0.00000000000000000000, 0.00000000000000000000, 0.00000000000000000000, 0.00000000000000000000, 0.00000000000000000000, 0.00000000000000000000, 0.00000000000000000000, 0.00000000000000000000, 0.00000000000000000000, 0.00000000000000000000, 0.00000000000000000000, 0.00000000000000000000, 0.00000000000000000000, 1.00000000000000000000, 1.00000000000000000000, 1672.00000000000000000000, 1680.00000000000000000000, 0.00000000000000000000
55.00000000000000000000, 0.00000000000000000000, 4758.97424260226940000000, 4048.20502921361140000000, 4209.23066630166250000000, 4171.28194928091120000000, 5645.12806708682910000000, 4535.38450448000730000000, 4707.17937207394700000000, 4253.84604982605830000000, 5911.79472723264640000000, 4366.66655988774980000000, 5273.84602488380730000000, 4177.94861578455680000000, 4154.35887277165780000000, 3863.58964911266090000000, 0.00000000000000000000, 0.00000000000000000000, 0.00000000000000000000, 0.00000000000000000000, 0.00000000000000000000, 0.00000000000000000000, 0.00000000000000000000, 0.00000000000000000000, 0.00000000000000000000, 0.00000000000000000000, 0.00000000000000000000, 0.00000000000000000000, 0.00000000000000000000, 0.00000000000000000000, 0.00000000000000000000, 1.00000000000000000000, 1.00000000000000000000, 1671.00000000000000000000, 1680.00000000000000000000, 0.00000000000000000000
56.00000000000000000000, 0.00000000000000000000, 4748.20501209638040000000, 4054.35887521697620000000, 4211.28194830278330000000, 4171.79476978119150000000, 5658.97422059440030000000, 4557.94860649234580000000, 4726.66655108460240000000, 4249.23066532353460000000, 5931.79472674358290000000, 4366.15373938746960000000, 5265.64089687932120000000, 4175.38451328315480000000, 4153.84605227137670000000, 3854.87170060789410000000, 0.00000000000000000000, 0.00000000000000000000, 0.00000000000000000000, 0.00000000000000000000, 0.00000000000000000000, 0.00000000000000000000, 0.00000000000000000000, 0.00000000000000000000, 0.00000000000000000000, 0.00000000000000000000, 0.00000000000000000000, 0.00000000000000000000, 0.00000000000000000000, 0.00000000000000000000, 0.00000000000000000000, 1.00000000000000000000, 1.00000000000000000000, 1672.00000000000000000000, 1679.00000000000000000000, 0.00000000000000000000
57.00000000000000000000, 0.00000000000000000000, 4737.43578159049140000000, 4050.76913171501340000000, 4212.30758930334470000000, 4169.74348778006970000000, 5598.46140156131150000000, 4547.69219648673700000000, 4686.66655206273030000000, 4249.23066532353460000000, 5907.69216323040290000000, 4367.17938038803090000000, 5222.05115435548580000000, 4171.79476978119150000000, 4152.82041127081630000000, 3856.41016210873520000000, 0.00000000000000000000, 0.00000000000000000000, 0.00000000000000000000, 0.00000000000000000000, 0.00000000000000000000, 0.00000000000000000000, 0.00000000000000000000, 0.00000000000000000000, 0.00000000000000000000, 0.00000000000000000000, 0.00000000000000000000, 0.00000000000000000000, 0.00000000000000000000, 0.00000000000000000000, 0.00000000000000000000, 1.00000000000000000000, 1.00000000000000000000, 1673.00000000000000000000, 1680.00000000000000000000, 0.00000000000000000000
58.00000000000000000000, 0.00000000000000000000, 4743.07680709357650000000, 4047.69220871333070000000, 4212.30758930334470000000, 4171.79476978119150000000, 5611.79473456860250000000, 4628.20501503076230000000, 4762.56398610423180000000, 4255.89733182718010000000, 5928.20498324161960000000, 4369.74348288943290000000, 5252.82038437231040000000, 4170.76912878063100000000, 4155.89733427249850000000, 3857.94862360957630000000, 0.00000000000000000000, 0.00000000000000000000, 0.00000000000000000000, 0.00000000000000000000, 0.00000000000000000000, 0.00000000000000000000, 0.00000000000000000000, 0.00000000000000000000, 0.00000000000000000000, 0.00000000000000000000, 0.00000000000000000000, 0.00000000000000000000, 0.00000000000000000000, 0.00000000000000000000, 0.00000000000000000000, 1.00000000000000000000, 1.00000000000000000000, 1674.00000000000000000000, 1680.00000000000000000000, 0.00000000000000000000
59.00000000000000000000, 0.00000000000000000000, 4750.76911459778240000000, 4052.30759321585450000000, 4216.92297380586840000000, 4176.41015428371520000000, 5562.56396654168200000000, 4740.51270459217360000000, 4885.12808567125190000000, 4256.41015232746030000000, 5962.56395676040760000000, 4371.79476489055470000000, 5287.17935789109830000000, 4171.28194928091120000000, 4153.84605227137670000000, 3849.23067510480950000000, 0.00000000000000000000, 0.00000000000000000000, 0.00000000000000000000, 0.00000000000000000000, 0.00000000000000000000, 0.00000000000000000000, 0.00000000000000000000, 0.00000000000000000000, 0.00000000000000000000, 0.00000000000000000000, 0.00000000000000000000, 0.00000000000000000000, 0.00000000000000000000, 0.00000000000000000000, 0.00000000000000000000, 1.00000000000000000000, 1.00000000000000000000, 1674.00000000000000000000, 1681.00000000000000000000, 0.00000000000000000000
60.00000000000000000000, 0.00000000000000000000, 4768.71783210759710000000, 4053.84605471669560000000, 4216.92297380586840000000, 4175.38451328315480000000, 5546.15371053270880000000, 4858.46141965666990000000, 5001.53833923490580000000, 4255.38451132689990000000, 5943.58959825003240000000, 4368.71784188887160000000, 5353.33320242727220000000, 4172.82041078175280000000, 4153.84605227137670000000, 3843.58964960172490000000, 0.00000000000000000000, 0.00000000000000000000, 0.00000000000000000000, 0.00000000000000000000, 0.00000000000000000000, 0.00000000000000000000, 0.00000000000000000000, 0.00000000000000000000, 0.00000000000000000000, 0.00000000000000000000, 0.00000000000000000000, 0.00000000000000000000, 0.00000000000000000000, 0.00000000000000000000, 0.00000000000000000000, 1.00000000000000000000, 1.00000000000000000000, 1675.00000000000000000000, 1680.00000000000000000000, 0.00000000000000000000
61.00000000000000000000, 0.00000000000000000000, 4826.66654863928400000000, 4059.48708021978020000000, 4215.89733280530710000000, 4174.87169278287460000000, 5672.82037410197150000000, 4980.51269872340890000000, 5110.76910579463490000000, 4254.87169082661880000000, 6011.28190428704690000000, 4368.71784188887160000000, 5490.25627600214370000000, 4177.43579528427650000000, 4164.61528277726570000000, 3846.66657260340750000000, 0.00000000000000000000, 0.00000000000000000000, 0.00000000000000000000, 0.00000000000000000000, 0.00000000000000000000, 0.00000000000000000000, 0.00000000000000000000, 0.00000000000000000000, 0.00000000000000000000, 0.00000000000000000000, 0.00000000000000000000, 0.00000000000000000000, 0.00000000000000000000, 0.00000000000000000000, 0.00000000000000000000, 1.00000000000000000000, 1.00000000000000000000, 1674.00000000000000000000, 1680.00000000000000000000, 0.00000000000000000000
62.00000000000000000000, 0.00000000000000000000, 4884.61526517097080000000, 4068.71784922482770000000, 4220.51271730783080000000, 4175.89733378343500000000, 5750.25626964431470000000, 5061.53833776771530000000, 5184.10243733473450000000, 4253.33322932577810000000, 6112.82036334257010000000, 4375.89732889279730000000, 5554.87165903747610000000, 4180.51271828595870000000, 4173.84605178231320000000, 3848.20503410424860000000, 0.00000000000000000000, 0.00000000000000000000, 0.00000000000000000000, 0.00000000000000000000, 0.00000000000000000000, 0.00000000000000000000, 0.00000000000000000000, 0.00000000000000000000, 0.00000000000000000000, 0.00000000000000000000, 0.00000000000000000000, 0.00000000000000000000, 0.00000000000000000000, 0.00000000000000000000, 0.00000000000000000000, 1.00000000000000000000, 1.00000000000000000000, 1674.00000000000000000000, 1681.00000000000000000000, 0.00000000000000000000
63.00000000000000000000, 0.00000000000000000000, 4895.89731617714010000000, 4069.23066972510830000000, 4219.48707630727040000000, 4173.84605178231320000000, 5752.82037214571660000000, 5093.84602928538150000000, 5224.61525685688780000000, 4254.35887032633850000000, 6076.41010782266040000000, 4375.89732889279730000000, 5593.33319655850760000000, 4184.10246178792200000000, 4172.82041078175280000000, 3845.12811110256600000000, 0.00000000000000000000, 0.00000000000000000000, 0.00000000000000000000, 0.00000000000000000000, 0.00000000000000000000, 0.00000000000000000000, 0.00000000000000000000, 0.00000000000000000000, 0.00000000000000000000, 0.00000000000000000000, 0.00000000000000000000, 0.00000000000000000000, 0.00000000000000000000, 0.00000000000000000000, 0.00000000000000000000, 1.00000000000000000000, 1.00000000000000000000, 1675.00000000000000000000, 1679.00000000000000000000, 0.00000000000000000000
64.00000000000000000000, 0.00000000000000000000, 4857.94859915638970000000, 4061.02554172062170000000, 4211.79476880306450000000, 4172.82041078175280000000, 5701.02550161739510000000, 5027.17936424892740000000, 5172.82038632856530000000, 4253.33322932577810000000, 5976.41011026797880000000, 4368.71784188887160000000, 5556.41012053831760000000, 4185.64092328876270000000, 4167.17938527866770000000, 3841.02554710032290000000, 0.00000000000000000000, 0.00000000000000000000, 0.00000000000000000000, 0.00000000000000000000, 0.00000000000000000000, 0.00000000000000000000, 0.00000000000000000000, 0.00000000000000000000, 0.00000000000000000000, 0.00000000000000000000, 0.00000000000000000000, 0.00000000000000000000, 0.00000000000000000000, 0.00000000000000000000, 0.00000000000000000000, 1.00000000000000000000, 1.00000000000000000000, 1674.00000000000000000000, 1680.00000000000000000000, 0.00000000000000000000
65.00000000000000000000, 0.00000000000000000000, 4813.33321563199300000000, 4061.02554172062170000000, 4206.66656380025960000000, 4174.35887228259340000000, 5671.79473310141110000000, 5003.58962123602760000000, 5179.48705283221080000000, 4248.20502432297420000000, 5931.28190624330180000000, 4366.15373938746960000000, 5514.35883951532290000000, 4183.58964128764090000000, 4161.53835977558360000000, 3839.48708559948140000000, 0.00000000000000000000, 0.00000000000000000000, 0.00000000000000000000, 0.00000000000000000000, 0.00000000000000000000, 0.00000000000000000000, 0.00000000000000000000, 0.00000000000000000000, 0.00000000000000000000, 0.00000000000000000000, 0.00000000000000000000, 0.00000000000000000000, 0.00000000000000000000, 0.00000000000000000000, 0.00000000000000000000, 1.00000000000000000000, 1.00000000000000000000, 1674.00000000000000000000, 1679.00000000000000000000, 0.00000000000000000000
66.00000000000000000000, 0.00000000000000000000, 4782.05116511488810000000, 4064.10246472230390000000, 4206.15374329997940000000, 4173.84605178231320000000, 5673.84601510253290000000, 4983.07680122481090000000, 5176.92295033080880000000, 4252.30758832521680000000, 5862.56395920572600000000, 4366.15373938746960000000, 5492.82037850354570000000, 4181.53835928651920000000, 4156.92297527305980000000, 3843.07682910144420000000, 0.00000000000000000000, 0.00000000000000000000, 0.00000000000000000000, 0.00000000000000000000, 0.00000000000000000000, 0.00000000000000000000, 0.00000000000000000000, 0.00000000000000000000, 0.00000000000000000000, 0.00000000000000000000, 0.00000000000000000000, 0.00000000000000000000, 0.00000000000000000000, 0.00000000000000000000, 0.00000000000000000000, 1.00000000000000000000, 1.00000000000000000000, 1673.00000000000000000000, 1679.00000000000000000000, 0.00000000000000000000
67.00000000000000000000, 0.00000000000000000000, 4789.23065211881390000000, 4061.02554172062170000000, 4205.64092279969920000000, 4173.84605178231320000000, 5660.51268209524190000000, 4894.35885467629940000000, 5077.94859377668850000000, 4257.94861382830190000000, 5830.76908818834000000000, 4363.58963688606760000000, 5452.82037948167270000000, 4182.56400028708050000000, 4159.99989827474200000000, 3845.64093160284660000000, 0.00000000000000000000, 0.00000000000000000000, 0.00000000000000000000, 0.00000000000000000000, 0.00000000000000000000, 0.00000000000000000000, 0.00000000000000000000, 0.00000000000000000000, 0.00000000000000000000, 0.00000000000000000000, 0.00000000000000000000, 0.00000000000000000000, 0.00000000000000000000, 0.00000000000000000000, 0.00000000000000000000, 1.00000000000000000000, 1.00000000000000000000, 1674.00000000000000000000, 1678.00000000000000000000, 0.00000000000000000000
68.00000000000000000000, 0.00000000000000000000, 4807.69219012890880000000, 4055.89733671781730000000, 4207.17938430054070000000, 4173.33323128203300000000, 5656.92293859327950000000, 4807.17936962862860000000, 4995.89731373182170000000, 4251.28194732465640000000, 5889.23062522030800000000, 4363.58963688606760000000, 5444.61525147718660000000, 4183.07682078736070000000, 4165.12810327754600000000, 3846.15375210312690000000, 0.00000000000000000000, 0.00000000000000000000, 0.00000000000000000000, 0.00000000000000000000, 0.00000000000000000000, 0.00000000000000000000, 0.00000000000000000000, 0.00000000000000000000, 0.00000000000000000000, 0.00000000000000000000, 0.00000000000000000000, 0.00000000000000000000, 0.00000000000000000000, 0.00000000000000000000, 0.00000000000000000000, 1.00000000000000000000, 1.00000000000000000000, 1673.00000000000000000000, 1677.00000000000000000000, 0.00000000000000000000
69.00000000000000000000, 0.00000000000000000000, 4827.17936913956420000000, 4053.33323421641530000000, 4213.33323030390510000000, 4173.33323128203300000000, 5663.07678459664380000000, 4723.58962808292020000000, 4922.05116169144180000000, 4247.69220382269300000000, 5947.69216225227500000000, 4366.15373938746960000000, 5401.02550895335120000000, 4179.48707728539830000000, 4166.66656477838750000000, 3846.66657260340750000000, 0.00000000000000000000, 0.00000000000000000000, 0.00000000000000000000, 0.00000000000000000000, 0.00000000000000000000, 0.00000000000000000000, 0.00000000000000000000, 0.00000000000000000000, 0.00000000000000000000, 0.00000000000000000000, 0.00000000000000000000, 0.00000000000000000000, 0.00000000000000000000, 0.00000000000000000000, 0.00000000000000000000, 1.00000000000000000000, 1.00000000000000000000, 1672.00000000000000000000, 1677.00000000000000000000, 0.00000000000000000000
70.00000000000000000000, 0.00000000000000000000, 4841.53834314741650000000, 4052.82041371613510000000, 4214.35887130446640000000, 4175.89733378343500000000, 5618.46140107224800000000, 4659.99988604814830000000, 4852.30757365330460000000, 4253.33322932577810000000, 5955.38446975648180000000, 4366.66655988774980000000, 5336.92294641829900000000, 4175.89733378343500000000, 4164.61528277726570000000, 3847.69221360396800000000, 0.00000000000000000000, 0.00000000000000000000, 0.00000000000000000000, 0.00000000000000000000, 0.00000000000000000000, 0.00000000000000000000, 0.00000000000000000000, 0.00000000000000000000, 0.00000000000000000000, 0.00000000000000000000, 0.00000000000000000000, 0.00000000000000000000, 0.00000000000000000000, 0.00000000000000000000, 0.00000000000000000000, 1.00000000000000000000, 1.00000000000000000000, 1672.00000000000000000000, 1676.00000000000000000000, 0.00000000000000000000
71.00000000000000000000, 0.00000000000000000000, 4874.35885516536290000000, 4055.89733671781730000000, 4213.33323030390510000000, 4175.89733378343500000000, 5676.92293810421510000000, 4661.02552704870960000000, 4834.35885614348990000000, 4254.35887032633850000000, 6038.46139080190910000000, 4369.23066238915180000000, 5388.20499644634040000000, 4177.94861578455680000000, 4169.74348778006970000000, 3848.71785460452880000000, 0.00000000000000000000, 0.00000000000000000000, 0.00000000000000000000, 0.00000000000000000000, 0.00000000000000000000, 0.00000000000000000000, 0.00000000000000000000, 0.00000000000000000000, 0.00000000000000000000, 0.00000000000000000000, 0.00000000000000000000, 0.00000000000000000000, 0.00000000000000000000, 0.00000000000000000000, 0.00000000000000000000, 1.00000000000000000000, 1.00000000000000000000, 1673.00000000000000000000, 1677.00000000000000000000, 0.00000000000000000000
72.00000000000000000000, 0.00000000000000000000, 4915.38449518779630000000, 4061.02554172062170000000, 4217.43579430614860000000, 4174.87169278287460000000, 5817.43575518104990000000, 4664.61527055067200000000, 4825.12808713844240000000, 4252.82040882549790000000, 6118.97420934593450000000, 4371.79476489055470000000, 5405.12807295559470000000, 4182.05117978680030000000, 4177.94861578455680000000, 3847.17939310368770000000, 0.00000000000000000000, 0.00000000000000000000, 0.00000000000000000000, 0.00000000000000000000, 0.00000000000000000000, 0.00000000000000000000, 0.00000000000000000000, 0.00000000000000000000, 0.00000000000000000000, 0.00000000000000000000, 0.00000000000000000000, 0.00000000000000000000, 0.00000000000000000000, 0.00000000000000000000, 0.00000000000000000000, 1.00000000000000000000, 1.00000000000000000000, 1672.00000000000000000000, 1676.00000000000000000000, 0.00000000000000000000
73.00000000000000000000, 0.00000000000000000000, 4957.43577621079020000000, 4068.71784922482770000000, 4222.05117880867240000000, 4176.92297478399540000000, 5952.30754675479970000000, 4747.17937109581910000000, 4910.25629018499240000000, 4254.35887032633850000000, 6195.38446388771720000000, 4373.84604689167550000000, 5472.82037899260920000000, 4183.07682078736070000000, 4182.56400028708050000000, 3845.64093160284660000000, 0.00000000000000000000, 0.00000000000000000000, 0.00000000000000000000, 0.00000000000000000000, 0.00000000000000000000, 0.00000000000000000000, 0.00000000000000000000, 0.00000000000000000000, 0.00000000000000000000, 0.00000000000000000000, 0.00000000000000000000, 0.00000000000000000000, 0.00000000000000000000, 0.00000000000000000000, 0.00000000000000000000, 1.00000000000000000000, 1.00000000000000000000, 1673.00000000000000000000, 1675.00000000000000000000, 0.00000000000000000000
74.00000000000000000000, 0.00000000000000000000, 5005.12808273686910000000, 4073.84605422763210000000, 4222.56399930895260000000, 4177.94861578455680000000, 6011.28190428704690000000, 4796.41013912273960000000, 4947.17936620518230000000, 4251.79476782493660000000, 6311.28189695109090000000, 4378.46143139419930000000, 5593.33319655850760000000, 4189.74348729100620000000, 4188.71784629044580000000, 3845.64093160284660000000, 0.00000000000000000000, 0.00000000000000000000, 0.00000000000000000000, 0.00000000000000000000, 0.00000000000000000000, 0.00000000000000000000, 0.00000000000000000000, 0.00000000000000000000, 0.00000000000000000000, 0.00000000000000000000, 0.00000000000000000000, 0.00000000000000000000, 0.00000000000000000000, 0.00000000000000000000, 0.00000000000000000000, 1.00000000000000000000, 1.00000000000000000000, 1675.00000000000000000000, 1676.00000000000000000000, 0.00000000000000000000
75.00000000000000000000, 0.00000000000000000000, 5060.51269676715400000000, 4074.35887472791230000000, 4221.02553780811190000000, 4177.94861578455680000000, 6066.66651831733180000000, 4889.23064967349460000000, 5032.82038975201160000000, 4253.33322932577810000000, 6360.51266497801130000000, 4382.05117489616260000000, 5699.99986061683380000000, 4195.89733329437150000000, 4200.51271779689520000000, 3846.15375210312690000000, 0.00000000000000000000, 0.00000000000000000000, 0.00000000000000000000, 0.00000000000000000000, 0.00000000000000000000, 0.00000000000000000000, 0.00000000000000000000, 0.00000000000000000000, 0.00000000000000000000, 0.00000000000000000000, 0.00000000000000000000, 0.00000000000000000000, 0.00000000000000000000, 0.00000000000000000000, 0.00000000000000000000, 1.00000000000000000000, 1.00000000000000000000, 1676.00000000000000000000, 1676.00000000000000000000, 0.00000000000000000000
76.00000000000000000000, 0.00000000000000000000, 5108.20500329323290000000, 4081.53836173183840000000, 4225.64092231063570000000, 4178.97425678511720000000, 6097.43574833415730000000, 5040.51269725621750000000, 5178.97423233193060000000, 4259.99989582942360000000, 6400.51266399988340000000, 4382.05117489616260000000, 5715.38447562524650000000, 4195.89733329437150000000, 4205.64092279969920000000, 3846.66657260340750000000, 0.00000000000000000000, 0.00000000000000000000, 0.00000000000000000000, 0.00000000000000000000, 0.00000000000000000000, 0.00000000000000000000, 0.00000000000000000000, 0.00000000000000000000, 0.00000000000000000000, 0.00000000000000000000, 0.00000000000000000000, 0.00000000000000000000, 0.00000000000000000000, 0.00000000000000000000, 0.00000000000000000000, 1.00000000000000000000, 1.00000000000000000000, 1676.00000000000000000000, 1677.00000000000000000000, 0.00000000000000000000
77.00000000000000000000, 0.00000000000000000000, 5147.17936131454460000000, 4090.76913073688590000000, 4228.71784531231790000000, 4179.48707728539830000000, 6073.33318482097730000000, 5135.38448980809520000000, 5277.43576838577060000000, 4253.84604982605830000000, 6398.46138199876170000000, 4382.56399539644280000000, 5709.74345012216240000000, 4192.82041029268840000000, 4206.66656380025960000000, 3846.15375210312690000000, 0.00000000000000000000, 0.00000000000000000000, 0.00000000000000000000, 0.00000000000000000000, 0.00000000000000000000, 0.00000000000000000000, 0.00000000000000000000, 0.00000000000000000000, 0.00000000000000000000, 0.00000000000000000000, 0.00000000000000000000, 0.00000000000000000000, 0.00000000000000000000, 0.00000000000000000000, 0.00000000000000000000, 1.00000000000000000000, 1.00000000000000000000, 1677.00000000000000000000, 1677.00000000000000000000, 0.00000000000000000000
78.00000000000000000000, 0.00000000000000000000, 5190.25628333809980000000, 4092.30759223772700000000, 4227.17938381147630000000, 4178.97425678511720000000, 6117.43574784509380000000, 5169.74346332688310000000, 5316.41012640708230000000, 4245.12810132129110000000, 6452.30753452820590000000, 4386.66655939868630000000, 5808.71780667628260000000, 4195.89733329437150000000, 4213.33323030390510000000, 3846.15375210312690000000, 0.00000000000000000000, 0.00000000000000000000, 0.00000000000000000000, 0.00000000000000000000, 0.00000000000000000000, 0.00000000000000000000, 0.00000000000000000000, 0.00000000000000000000, 0.00000000000000000000, 0.00000000000000000000, 0.00000000000000000000, 0.00000000000000000000, 0.00000000000000000000, 0.00000000000000000000, 0.00000000000000000000, 1.00000000000000000000, 1.00000000000000000000, 1677.00000000000000000000, 1677.00000000000000000000, 0.00000000000000000000
79.00000000000000000000, 0.00000000000000000000, 5219.99987235436400000000, 4083.58964373295980000000, 4227.69220431175750000000, 4179.99989778567850000000, 6043.07677530443290000000, 5167.17936082548110000000, 5305.12807540091310000000, 4251.28194732465640000000, 6418.97420200997840000000, 4385.64091839812590000000, 5771.79473065609270000000, 4194.87169229381020000000, 4218.46143530671000000000, 3847.17939310368770000000, 0.00000000000000000000, 0.00000000000000000000, 0.00000000000000000000, 0.00000000000000000000, 0.00000000000000000000, 0.00000000000000000000, 0.00000000000000000000, 0.00000000000000000000, 0.00000000000000000000, 0.00000000000000000000, 0.00000000000000000000, 0.00000000000000000000, 0.00000000000000000000, 0.00000000000000000000, 0.00000000000000000000, 1.00000000000000000000, 1.00000000000000000000, 1677.00000000000000000000, 1678.00000000000000000000, 0.00000000000000000000
80.00000000000000000000, 0.00000000000000000000, 5266.66653787988160000000, 4087.69220773520330000000, 4233.84605031512180000000, 4182.05117978680030000000, 6127.69215785070170000000, 5276.92294788549040000000, 5429.74345696905400000000, 4256.41015232746030000000, 6480.51266204362860000000, 4383.58963639700410000000, 5853.33319020067850000000, 4195.38451279409130000000, 4222.05117880867240000000, 3847.69221360396800000000, 0.00000000000000000000, 0.00000000000000000000, 0.00000000000000000000, 0.00000000000000000000, 0.00000000000000000000, 0.00000000000000000000, 0.00000000000000000000, 0.00000000000000000000, 0.00000000000000000000, 0.00000000000000000000, 0.00000000000000000000, 0.00000000000000000000, 0.00000000000000000000, 0.00000000000000000000, 0.00000000000000000000, 1.00000000000000000000, 1.00000000000000000000, 1677.00000000000000000000, 1678.00000000000000000000, 0.00000000000000000000
81.00000000000000000000, 0.00000000000000000000, 5354.87166392811380000000, 4097.94861774081160000000, 4235.89733231624360000000, 4186.15374378904290000000, 6229.74343740650510000000, 5350.76909992587030000000, 5495.89730150522790000000, 4251.79476782493660000000, 6585.12804410083390000000, 4388.20502089952790000000, 5940.51267524834930000000, 4199.48707679633390000000, 4235.89733231624360000000, 3847.69221360396800000000, 0.00000000000000000000, 0.00000000000000000000, 0.00000000000000000000, 0.00000000000000000000, 0.00000000000000000000, 0.00000000000000000000, 0.00000000000000000000, 0.00000000000000000000, 0.00000000000000000000, 0.00000000000000000000, 0.00000000000000000000, 0.00000000000000000000, 0.00000000000000000000, 0.00000000000000000000, 0.00000000000000000000, 1.00000000000000000000, 1.00000000000000000000, 1678.00000000000000000000, 1679.00000000000000000000, 0.00000000000000000000
82.00000000000000000000, 0.00000000000000000000, 5459.48704598531820000000, 4099.99989974193340000000, 4233.33322981484160000000, 4189.74348729100620000000, 6377.43574148726470000000, 5352.82038192699200000000, 5499.48704500719120000000, 4252.30758832521680000000, 6666.15368314513940000000, 4391.28194390121010000000, 6064.61523631621090000000, 4202.56399979801700000000, 4250.25630632409500000000, 3846.66657260340750000000, 0.00000000000000000000, 0.00000000000000000000, 0.00000000000000000000, 0.00000000000000000000, 0.00000000000000000000, 0.00000000000000000000, 0.00000000000000000000, 0.00000000000000000000, 0.00000000000000000000, 0.00000000000000000000, 0.00000000000000000000, 0.00000000000000000000, 0.00000000000000000000, 0.00000000000000000000, 0.00000000000000000000, 1.00000000000000000000, 1.00000000000000000000, 1678.00000000000000000000, 1677.00000000000000000000, 0.00000000000000000000
83.00000000000000000000, 0.00000000000000000000, 5515.89730101616440000000, 4106.66656624557890000000, 4237.94861431736540000000, 4189.74348729100620000000, 6498.97420005372350000000, 5334.35884391689710000000, 5523.58960852037030000000, 4251.79476782493660000000, 6730.76906618047180000000, 4390.76912340092990000000, 6161.02549036892920000000, 4209.23066630166250000000, 4253.33322932577810000000, 3846.15375210312690000000, 0.00000000000000000000, 0.00000000000000000000, 0.00000000000000000000, 0.00000000000000000000, 0.00000000000000000000, 0.00000000000000000000, 0.00000000000000000000, 0.00000000000000000000, 0.00000000000000000000, 0.00000000000000000000, 0.00000000000000000000, 0.00000000000000000000, 0.00000000000000000000, 0.00000000000000000000, 0.00000000000000000000, 1.00000000000000000000, 1.00000000000000000000, 1677.00000000000000000000, 1678.00000000000000000000, 0.00000000000000000000
84.00000000000000000000, 0.00000000000000000000, 5549.23063353439190000000, 4111.28195074810260000000, 4241.02553731904750000000, 4190.25630779128640000000, 6668.71778564654140000000, 5254.87166637343220000000, 5476.41012249457250000000, 4249.74348582381480000000, 6832.30752523599490000000, 4392.82040540205160000000, 6311.79471745137110000000, 4217.43579430614860000000, 4257.43579332802160000000, 3849.74349560508970000000, 0.00000000000000000000, 0.00000000000000000000, 0.00000000000000000000, 0.00000000000000000000, 0.00000000000000000000, 0.00000000000000000000, 0.00000000000000000000, 0.00000000000000000000, 0.00000000000000000000, 0.00000000000000000000, 0.00000000000000000000, 0.00000000000000000000, 0.00000000000000000000, 0.00000000000000000000, 0.00000000000000000000, 1.00000000000000000000, 1.00000000000000000000, 1678.00000000000000000000, 1677.00000000000000000000, 0.00000000000000000000
85.00000000000000000000, 0.00000000000000000000, 5601.02550406271350000000, 4109.23066874698090000000, 4239.48707581820690000000, 4191.79476929212800000000, 6806.15367972169320000000, 5188.71782183725830000000, 5407.17935495671650000000, 4251.79476782493660000000, 6930.25624078955390000000, 4396.41014890401400000000, 6475.38445704082460000000, 4225.12810181035550000000, 4266.15374183278800000000, 3853.84605960733320000000, 0.00000000000000000000, 0.00000000000000000000, 0.00000000000000000000, 0.00000000000000000000, 0.00000000000000000000, 0.00000000000000000000, 0.00000000000000000000, 0.00000000000000000000, 0.00000000000000000000, 0.00000000000000000000, 0.00000000000000000000, 0.00000000000000000000, 0.00000000000000000000, 0.00000000000000000000, 0.00000000000000000000, 1.00000000000000000000, 1.00000000000000000000, 1676.00000000000000000000, 1678.00000000000000000000, 0.00000000000000000000
86.00000000000000000000, 0.00000000000000000000, 5678.46139960505660000000, 4112.30759174866310000000, 4244.10246032073060000000, 4192.82041029268840000000, 6954.35880430273390000000, 5179.48705283221080000000, 5406.66653445643530000000, 4250.76912682437610000000, 7005.64085433077530000000, 4395.38450790345360000000, 6622.05112012102380000000, 4228.20502481203770000000, 4276.41015183839680000000, 3850.76913660565060000000, 0.00000000000000000000, 0.00000000000000000000, 0.00000000000000000000, 0.00000000000000000000, 0.00000000000000000000, 0.00000000000000000000, 0.00000000000000000000, 0.00000000000000000000, 0.00000000000000000000, 0.00000000000000000000, 0.00000000000000000000, 0.00000000000000000000, 0.00000000000000000000, 0.00000000000000000000, 0.00000000000000000000, 1.00000000000000000000, 1.00000000000000000000, 1677.00000000000000000000, 1679.00000000000000000000, 0.00000000000000000000
87.00000000000000000000, 0.00000000000000000000, 5746.66652614235230000000, 4121.02554025343030000000, 4254.35887032633850000000, 4196.41015379465170000000, 7136.92290240256260000000, 5187.69218083669780000000, 5439.99986697466280000000, 4250.25630632409500000000, 7120.51264639358850000000, 4396.92296940429420000000, 6803.58957722029120000000, 4235.89733231624360000000, 4283.58963884232250000000, 3849.23067510480950000000, 0.00000000000000000000, 0.00000000000000000000, 0.00000000000000000000, 0.00000000000000000000, 0.00000000000000000000, 0.00000000000000000000, 0.00000000000000000000, 0.00000000000000000000, 0.00000000000000000000, 0.00000000000000000000, 0.00000000000000000000, 0.00000000000000000000, 0.00000000000000000000, 0.00000000000000000000, 0.00000000000000000000, 1.00000000000000000000, 1.00000000000000000000, 1676.00000000000000000000, 1678.00000000000000000000, 0.00000000000000000000
88.00000000000000000000, 0.00000000000000000000, 5796.41011466955210000000, 4122.05118125399170000000, 4254.35887032633850000000, 4199.99989729661500000000, 7243.07674596060860000000, 5199.99987284342750000000, 5460.51268698587960000000, 4253.84604982605830000000, 7185.12802942892180000000, 4403.07681540765950000000, 6916.41008728198270000000, 4238.97425531792670000000, 4286.15374134372450000000, 3851.28195710593130000000, 0.00000000000000000000, 0.00000000000000000000, 0.00000000000000000000, 0.00000000000000000000, 0.00000000000000000000, 0.00000000000000000000, 0.00000000000000000000, 0.00000000000000000000, 0.00000000000000000000, 0.00000000000000000000, 0.00000000000000000000, 0.00000000000000000000, 0.00000000000000000000, 0.00000000000000000000, 0.00000000000000000000, 1.00000000000000000000, 1.00000000000000000000, 1675.00000000000000000000, 1678.00000000000000000000, 0.00000000000000000000
89.00000000000000000000, 0.00000000000000000000, 5823.07678068413410000000, 4126.15374525623430000000, 4253.84604982605830000000, 4198.46143579577350000000, 7336.92289751192490000000, 5194.35884734034330000000, 5468.71781499036570000000, 4252.30758832521680000000, 7244.10238696116900000000, 4406.66655890962280000000, 7018.97418733806630000000, 4238.97425531792670000000, 4286.15374134372450000000, 3849.74349560508970000000, 0.00000000000000000000, 0.00000000000000000000, 0.00000000000000000000, 0.00000000000000000000, 0.00000000000000000000, 0.00000000000000000000, 0.00000000000000000000, 0.00000000000000000000, 0.00000000000000000000, 0.00000000000000000000, 0.00000000000000000000, 0.00000000000000000000, 0.00000000000000000000, 0.00000000000000000000, 0.00000000000000000000, 1.00000000000000000000, 1.00000000000000000000, 1674.00000000000000000000, 1679.00000000000000000000, 0.00000000000000000000
90.00000000000000000000, 0.00000000000000000000, 5861.02549770488530000000, 4131.79477075931940000000, 4256.41015232746030000000, 4200.51271779689520000000, 7302.05110349285680000000, 5273.33320438352710000000, 5548.71781303411080000000, 4251.28194732465640000000, 7229.74341295331760000000, 4405.64091790906150000000, 6993.84598282432580000000, 4239.48707581820690000000, 4293.33322834765020000000, 3849.23067510480950000000, 0.00000000000000000000, 0.00000000000000000000, 0.00000000000000000000, 0.00000000000000000000, 0.00000000000000000000, 0.00000000000000000000, 0.00000000000000000000, 0.00000000000000000000, 0.00000000000000000000, 0.00000000000000000000, 0.00000000000000000000, 0.00000000000000000000, 0.00000000000000000000, 0.00000000000000000000, 0.00000000000000000000, 1.00000000000000000000, 1.00000000000000000000, 1674.00000000000000000000, 1679.00000000000000000000, 0.00000000000000000000
91.00000000000000000000, 0.00000000000000000000, 5924.10241923937610000000, 4134.35887326072130000000, 4258.46143432858210000000, 4205.12810229941900000000, 7336.41007701164470000000, 5348.20499742446830000000, 5624.61524707561240000000, 4254.35887032633850000000, 7253.33315596621650000000, 4406.15373840934260000000, 7011.28187983386030000000, 4241.53835781932870000000, 4303.58963835325900000000, 3851.79477760621150000000, 0.00000000000000000000, 0.00000000000000000000, 0.00000000000000000000, 0.00000000000000000000, 0.00000000000000000000, 0.00000000000000000000, 0.00000000000000000000, 0.00000000000000000000, 0.00000000000000000000, 0.00000000000000000000, 0.00000000000000000000, 0.00000000000000000000, 0.00000000000000000000, 0.00000000000000000000, 0.00000000000000000000, 1.00000000000000000000, 1.00000000000000000000, 1673.00000000000000000000, 1678.00000000000000000000, 0.00000000000000000000
92.00000000000000000000, 0.00000000000000000000, 5957.43575175760360000000, 4135.38451426128180000000, 4257.94861382830190000000, 4206.66656380025960000000, 7283.58956548276180000000, 5402.05114995391160000000, 5680.51268160617840000000, 4250.25630632409500000000, 7232.30751545471960000000, 4408.20502041046350000000, 6958.46136830497740000000, 4236.92297331680490000000, 4304.10245885353920000000, 3852.82041860677240000000, 0.00000000000000000000, 0.00000000000000000000, 0.00000000000000000000, 0.00000000000000000000, 0.00000000000000000000, 0.00000000000000000000, 0.00000000000000000000, 0.00000000000000000000, 0.00000000000000000000, 0.00000000000000000000, 0.00000000000000000000, 0.00000000000000000000, 0.00000000000000000000, 0.00000000000000000000, 0.00000000000000000000, 1.00000000000000000000, 1.00000000000000000000, 1673.00000000000000000000, 1679.00000000000000000000, 0.00000000000000000000
93.00000000000000000000, 0.00000000000000000000, 5943.58959825003240000000, 4133.84605276044110000000, 4256.92297282774050000000, 4207.69220480082090000000, 7177.94854242499600000000, 5395.89730395054720000000, 5624.10242657533220000000, 4246.15374232185240000000, 7183.07674742780000000000, 4407.17937940990300000000, 6853.84598624777210000000, 4236.41015281652380000000, 4300.51271535157590000000, 3853.84605960733320000000, 0.00000000000000000000, 0.00000000000000000000, 0.00000000000000000000, 0.00000000000000000000, 0.00000000000000000000, 0.00000000000000000000, 0.00000000000000000000, 0.00000000000000000000, 0.00000000000000000000, 0.00000000000000000000, 0.00000000000000000000, 0.00000000000000000000, 0.00000000000000000000, 0.00000000000000000000, 0.00000000000000000000, 1.00000000000000000000, 1.00000000000000000000, 1672.00000000000000000000, 1678.00000000000000000000, 0.00000000000000000000
94.00000000000000000000, 0.00000000000000000000, 5927.17934224105920000000, 4127.17938625679560000000, 4254.87169082661880000000, 4205.64092279969920000000, 7042.05110985068500000000, 5380.51268894213440000000, 5558.97422303971960000000, 4252.82040882549790000000, 7117.94854389218650000000, 4403.07681540765950000000, 6712.30752817037680000000, 4236.92297331680490000000, 4299.48707435101550000000, 3853.33323910705260000000, 0.00000000000000000000, 0.00000000000000000000, 0.00000000000000000000, 0.00000000000000000000, 0.00000000000000000000, 0.00000000000000000000, 0.00000000000000000000, 0.00000000000000000000, 0.00000000000000000000, 0.00000000000000000000, 0.00000000000000000000, 0.00000000000000000000, 0.00000000000000000000, 0.00000000000000000000, 0.00000000000000000000, 1.00000000000000000000, 1.00000000000000000000, 1670.00000000000000000000, 1679.00000000000000000000, 0.00000000000000000000
95.00000000000000000000, 0.00000000000000000000, 5919.99985523713260000000, 4122.05118125399170000000, 4253.33322932577810000000, 4205.64092279969920000000, 6891.28188276824220000000, 5406.15371395615510000000, 5596.41011956018970000000, 4255.38451132689990000000, 7041.53828935040470000000, 4398.97425140541600000000, 6562.05112158821520000000, 4228.20502481203770000000, 4296.92297184961350000000, 3849.23067510480950000000, 0.00000000000000000000, 0.00000000000000000000, 0.00000000000000000000, 0.00000000000000000000, 0.00000000000000000000, 0.00000000000000000000, 0.00000000000000000000, 0.00000000000000000000, 0.00000000000000000000, 0.00000000000000000000, 0.00000000000000000000, 0.00000000000000000000, 0.00000000000000000000, 0.00000000000000000000, 0.00000000000000000000, 1.00000000000000000000, 1.00000000000000000000, 1671.00000000000000000000, 1678.00000000000000000000, 0.00000000000000000000
96.00000000000000000000, 0.00000000000000000000, 5870.25626670993280000000, 4121.53836075371050000000, 4251.28194732465640000000, 4206.66656380025960000000, 6832.82034573627520000000, 5365.64089443400190000000, 5560.51268454056030000000, 4252.30758832521680000000, 7007.17931583161680000000, 4397.43578990457540000000, 6509.74343055961250000000, 4227.17938381147630000000, 4288.71784384512650000000, 3849.74349560508970000000, 0.00000000000000000000, 0.00000000000000000000, 0.00000000000000000000, 0.00000000000000000000, 0.00000000000000000000, 0.00000000000000000000, 0.00000000000000000000, 0.00000000000000000000, 0.00000000000000000000, 0.00000000000000000000, 0.00000000000000000000, 0.00000000000000000000, 0.00000000000000000000, 0.00000000000000000000, 0.00000000000000000000, 1.00000000000000000000, 1.00000000000000000000, 1670.00000000000000000000, 1679.00000000000000000000, 0.00000000000000000000
97.00000000000000000000, 0.00000000000000000000, 5793.84601216815010000000, 4116.92297625118680000000, 4246.15374232185240000000, 4202.56399979801700000000, 6633.84599162747330000000, 5339.99986941998120000000, 5524.61524952093170000000, 4252.30758832521680000000, 6890.76906226796200000000, 4396.41014890401400000000, 6301.02548694548300000000, 4227.17938381147630000000, 4279.99989534035920000000, 3852.30759810649170000000, 0.00000000000000000000, 0.00000000000000000000, 0.00000000000000000000, 0.00000000000000000000, 0.00000000000000000000, 0.00000000000000000000, 0.00000000000000000000, 0.00000000000000000000, 0.00000000000000000000, 0.00000000000000000000, 0.00000000000000000000, 0.00000000000000000000, 0.00000000000000000000, 0.00000000000000000000, 0.00000000000000000000, 1.00000000000000000000, 1.00000000000000000000, 1671.00000000000000000000, 1680.00000000000000000000, 0.00000000000000000000
98.00000000000000000000, 0.00000000000000000000, 5725.12806513057420000000, 4110.76913024782240000000, 4243.58963982045040000000, 4196.41015379465170000000, 6512.82035356129470000000, 5340.51268992026140000000, 5545.64089003242860000000, 4252.30758832521680000000, 6815.38444872674060000000, 4393.33322590233180000000, 6165.12805437117190000000, 4216.41015330558820000000, 4270.76912633531170000000, 3849.23067510480950000000, 0.00000000000000000000, 0.00000000000000000000, 0.00000000000000000000, 0.00000000000000000000, 0.00000000000000000000, 0.00000000000000000000, 0.00000000000000000000, 0.00000000000000000000, 0.00000000000000000000, 0.00000000000000000000, 0.00000000000000000000, 0.00000000000000000000, 0.00000000000000000000, 0.00000000000000000000, 0.00000000000000000000, 1.00000000000000000000, 1.00000000000000000000, 1669.00000000000000000000, 1679.00000000000000000000, 0.00000000000000000000
99.00000000000000000000, 0.00000000000000000000, 5676.41011760393490000000, 4105.12810474473740000000, 4242.56399881988910000000, 4195.89733329437150000000, 6449.23061152652280000000, 5252.30756387203020000000, 5473.84601999317060000000, 4251.28194732465640000000, 6765.12803969925970000000, 4391.28194390121010000000, 6094.35882533247510000000, 4207.17938430054070000000, 4265.12810083222760000000, 3847.17939310368770000000, 0.00000000000000000000, 0.00000000000000000000, 0.00000000000000000000, 0.00000000000000000000, 0.00000000000000000000, 0.00000000000000000000, 0.00000000000000000000, 0.00000000000000000000, 0.00000000000000000000, 0.00000000000000000000, 0.00000000000000000000, 0.00000000000000000000, 0.00000000000000000000, 0.00000000000000000000, 0.00000000000000000000, 1.00000000000000000000, 1.00000000000000000000, 1669.00000000000000000000, 1680.00000000000000000000, 0.00000000000000000000
100.00000000000000000000, 0.00000000000000000000, 5630.25627257869750000000, 4101.02554074249380000000, 4241.02553731904750000000, 4196.41015379465170000000, 6534.87163507335300000000, 5177.43577083108900000000, 5432.82037997073710000000, 4250.76912682437610000000, 6801.02547471888920000000, 4392.82040540205160000000, 6180.51266937958460000000, 4209.74348680194270000000, 4261.02553682998400000000, 3851.28195710593130000000, 0.00000000000000000000, 0.00000000000000000000, 0.00000000000000000000, 0.00000000000000000000, 0.00000000000000000000, 0.00000000000000000000, 0.00000000000000000000, 0.00000000000000000000, 0.00000000000000000000, 0.00000000000000000000, 0.00000000000000000000, 0.00000000000000000000, 0.00000000000000000000, 0.00000000000000000000, 0.00000000000000000000, 1.00000000000000000000, 1.00000000000000000000, 1669.00000000000000000000, 1680.00000000000000000000, 0.00000000000000000000
101.00000000000000000000, 0.00000000000000000000, 5588.71781205598380000000, 4099.48707924165320000000, 4241.53835781932870000000, 4194.87169229381020000000, 6489.23061054839580000000, 5078.46141427696880000000, 5345.64089492306630000000, 4252.82040882549790000000, 6784.61521870991600000000, 4392.82040540205160000000, 6144.10241385967490000000, 4212.82040980362490000000, 4253.33322932577810000000, 3851.79477760621150000000, 0.00000000000000000000, 0.00000000000000000000, 0.00000000000000000000, 0.00000000000000000000, 0.00000000000000000000, 0.00000000000000000000, 0.00000000000000000000, 0.00000000000000000000, 0.00000000000000000000, 0.00000000000000000000, 0.00000000000000000000, 0.00000000000000000000, 0.00000000000000000000, 0.00000000000000000000, 0.00000000000000000000, 1.00000000000000000000, 1.00000000000000000000, 1669.00000000000000000000, 1681.00000000000000000000, 0.00000000000000000000
102.00000000000000000000, 0.00000000000000000000, 5529.23063402345540000000, 4094.35887423884880000000, 4236.41015281652380000000, 4194.35887179352990000000, 6384.10240799091030000000, 4913.33321318667460000000, 5174.35884782940680000000, 4252.82040882549790000000, 6682.56393915411260000000, 4388.71784139980810000000, 5988.71780227470840000000, 4207.17938430054070000000, 4241.53835781932870000000, 3849.23067510480950000000, 0.00000000000000000000, 0.00000000000000000000, 0.00000000000000000000, 0.00000000000000000000, 0.00000000000000000000, 0.00000000000000000000, 0.00000000000000000000, 0.00000000000000000000, 0.00000000000000000000, 0.00000000000000000000, 0.00000000000000000000, 0.00000000000000000000, 0.00000000000000000000, 0.00000000000000000000, 0.00000000000000000000, 1.00000000000000000000, 1.00000000000000000000, 1669.00000000000000000000, 1681.00000000000000000000, 0.00000000000000000000
103.00000000000000000000, 0.00000000000000000000, 5465.12807148840330000000, 4091.28195123716610000000, 4233.33322981484160000000, 4192.30758979240820000000, 6421.02548401110020000000, 4813.33321563199300000000, 5075.89731177556680000000, 4251.28194732465640000000, 6676.92291365102850000000, 4390.25630290064960000000, 6003.58959678284100000000, 4204.10246129885760000000, 4235.89733231624360000000, 3848.71785460452880000000, 0.00000000000000000000, 0.00000000000000000000, 0.00000000000000000000, 0.00000000000000000000, 0.00000000000000000000, 0.00000000000000000000, 0.00000000000000000000, 0.00000000000000000000, 0.00000000000000000000, 0.00000000000000000000, 0.00000000000000000000, 0.00000000000000000000, 0.00000000000000000000, 0.00000000000000000000, 0.00000000000000000000, 1.00000000000000000000, 1.00000000000000000000, 1669.00000000000000000000, 1681.00000000000000000000, 0.00000000000000000000
104.00000000000000000000, 0.00000000000000000000, 5424.61525196625010000000, 4086.66656673464240000000, 4233.33322981484160000000, 4189.74348729100620000000, 6361.02548547829160000000, 4791.79475462021580000000, 5054.87167126406980000000, 4249.74348582381480000000, 6633.84599162747330000000, 4388.20502089952790000000, 5932.30754724386320000000, 4201.53835879745570000000, 4235.89733231624360000000, 3849.23067510480950000000, 0.00000000000000000000, 0.00000000000000000000, 0.00000000000000000000, 0.00000000000000000000, 0.00000000000000000000, 0.00000000000000000000, 0.00000000000000000000, 0.00000000000000000000, 0.00000000000000000000, 0.00000000000000000000, 0.00000000000000000000, 0.00000000000000000000, 0.00000000000000000000, 0.00000000000000000000, 0.00000000000000000000, 1.00000000000000000000, 1.00000000000000000000, 1669.00000000000000000000, 1680.00000000000000000000, 0.00000000000000000000
105.00000000000000000000, 0.00000000000000000000, 5413.33320096008080000000, 4086.66656673464240000000, 4233.33322981484160000000, 4189.23066679072600000000, 6327.69215296006400000000, 4853.84603515414620000000, 5093.84602928538150000000, 4250.25630632409500000000, 6619.99983811990210000000, 4383.58963639700410000000, 5908.71780423096330000000, 4202.56399979801700000000, 4234.87169131568320000000, 3849.23067510480950000000, 0.00000000000000000000, 0.00000000000000000000, 0.00000000000000000000, 0.00000000000000000000, 0.00000000000000000000, 0.00000000000000000000, 0.00000000000000000000, 0.00000000000000000000, 0.00000000000000000000, 0.00000000000000000000, 0.00000000000000000000, 0.00000000000000000000, 0.00000000000000000000, 0.00000000000000000000, 0.00000000000000000000, 1.00000000000000000000, 1.00000000000000000000, 1668.00000000000000000000, 1682.00000000000000000000, 0.00000000000000000000
106.00000000000000000000, 0.00000000000000000000, 5400.51268845307100000000, 4087.17938723492310000000, 4232.30758881428120000000, 4190.25630779128640000000, 6295.38446144239790000000, 4821.02552313619980000000, 5030.76910775088980000000, 4249.23066532353460000000, 6610.76906911485460000000, 4384.61527739756460000000, 5891.28190722142970000000, 4207.17938430054070000000, 4232.82040931456140000000, 3849.23067510480950000000, 0.00000000000000000000, 0.00000000000000000000, 0.00000000000000000000, 0.00000000000000000000, 0.00000000000000000000, 0.00000000000000000000, 0.00000000000000000000, 0.00000000000000000000, 0.00000000000000000000, 0.00000000000000000000, 0.00000000000000000000, 0.00000000000000000000, 0.00000000000000000000, 0.00000000000000000000, 0.00000000000000000000, 1.00000000000000000000, 1.00000000000000000000, 1669.00000000000000000000, 1681.00000000000000000000, 0.00000000000000000000
107.00000000000000000000, 0.00000000000000000000, 5393.33320144914430000000, 4087.17938723492310000000, 4232.30758881428120000000, 4187.69220528988440000000, 6301.02548694548300000000, 4890.25629067405590000000, 5094.87167028594190000000, 4248.20502432297420000000, 6646.15368363420290000000, 4387.69220039924680000000, 5929.74344474246120000000, 4209.23066630166250000000, 4232.30758881428120000000, 3849.74349560508970000000, 0.00000000000000000000, 0.00000000000000000000, 0.00000000000000000000, 0.00000000000000000000, 0.00000000000000000000, 0.00000000000000000000, 0.00000000000000000000, 0.00000000000000000000, 0.00000000000000000000, 0.00000000000000000000, 0.00000000000000000000, 0.00000000000000000000, 0.00000000000000000000, 0.00000000000000000000, 0.00000000000000000000, 1.00000000000000000000, 1.00000000000000000000, 1668.00000000000000000000, 1681.00000000000000000000, 0.00000000000000000000
108.00000000000000000000, 0.00000000000000000000, 5376.41012493989090000000, 4083.07682323267950000000, 4230.76912731343960000000, 4186.66656428932400000000, 6052.30754430948040000000, 4982.05116022425050000000, 5176.92295033080880000000, 4249.74348582381480000000, 6530.25625057082930000000, 4383.07681589672300000000, 5722.05114212889200000000, 4197.43579479521210000000, 4231.28194781371990000000, 3850.76913660565060000000, 0.00000000000000000000, 0.00000000000000000000, 0.00000000000000000000, 0.00000000000000000000, 0.00000000000000000000, 0.00000000000000000000, 0.00000000000000000000, 0.00000000000000000000, 0.00000000000000000000, 0.00000000000000000000, 0.00000000000000000000, 0.00000000000000000000, 0.00000000000000000000, 0.00000000000000000000, 0.00000000000000000000, 1.00000000000000000000, 1.00000000000000000000, 1669.00000000000000000000, 1682.00000000000000000000, 0.00000000000000000000
109.00000000000000000000, 0.00000000000000000000, 5341.02551042054260000000, 4079.48707973071670000000, 4230.25630681315940000000, 4186.15374378904290000000, 5888.20498421974750000000, 5041.02551775649860000000, 5229.23064135941150000000, 4249.23066532353460000000, 6426.66650951418520000000, 4382.56399539644280000000, 5564.10242804252360000000, 4185.12810278848250000000, 4228.20502481203770000000, 3850.76913660565060000000, 0.00000000000000000000, 0.00000000000000000000, 0.00000000000000000000, 0.00000000000000000000, 0.00000000000000000000, 0.00000000000000000000, 0.00000000000000000000, 0.00000000000000000000, 0.00000000000000000000, 0.00000000000000000000, 0.00000000000000000000, 0.00000000000000000000, 0.00000000000000000000, 0.00000000000000000000, 0.00000000000000000000, 1.00000000000000000000, 1.00000000000000000000, 1668.00000000000000000000, 1682.00000000000000000000, 0.00000000000000000000
110.00000000000000000000, 0.00000000000000000000, 5324.10243391128820000000, 4078.46143873015580000000, 4232.82040931456140000000, 4186.15374378904290000000, 5869.74344620965170000000, 5104.10243929098940000000, 5270.76910188212510000000, 4248.71784482325440000000, 6427.17933001446540000000, 4385.64091839812590000000, 5630.76909307897770000000, 4187.17938478960420000000, 4225.64092231063570000000, 3850.25631610537040000000, 0.00000000000000000000, 0.00000000000000000000, 0.00000000000000000000, 0.00000000000000000000, 0.00000000000000000000, 0.00000000000000000000, 0.00000000000000000000, 0.00000000000000000000, 0.00000000000000000000, 0.00000000000000000000, 0.00000000000000000000, 0.00000000000000000000, 0.00000000000000000000, 0.00000000000000000000, 0.00000000000000000000, 1.00000000000000000000, 1.00000000000000000000, 1669.00000000000000000000, 1680.00000000000000000000, 0.00000000000000000000
111.00000000000000000000, 0.00000000000000000000, 5334.87166441717730000000, 4075.38451572847320000000, 4229.74348631287920000000, 4186.15374378904290000000, 5854.87165170152000000000, 5156.92295081987230000000, 5314.35884440596060000000, 4253.33322932577810000000, 6442.05112452259710000000, 4383.58963639700410000000, 5678.97422010533680000000, 4190.76912829156750000000, 4227.69220431175750000000, 3852.30759810649170000000, 0.00000000000000000000, 0.00000000000000000000, 0.00000000000000000000, 0.00000000000000000000, 0.00000000000000000000, 0.00000000000000000000, 0.00000000000000000000, 0.00000000000000000000, 0.00000000000000000000, 0.00000000000000000000, 0.00000000000000000000, 0.00000000000000000000, 0.00000000000000000000, 0.00000000000000000000, 0.00000000000000000000, 1.00000000000000000000, 1.00000000000000000000, 1669.00000000000000000000, 1678.00000000000000000000, 0.00000000000000000000
112.00000000000000000000, 0.00000000000000000000, 5335.89730541773770000000, 4074.35887472791230000000, 4227.17938381147630000000, 4186.66656428932400000000, 5786.15370466394420000000, 5202.56397534482950000000, 5373.84602243848890000000, 4257.43579332802160000000, 6359.99984447773020000000, 4381.02553389560220000000, 5644.10242608626870000000, 4187.69220528988440000000, 4228.20502481203770000000, 3852.30759810649170000000, 0.00000000000000000000, 0.00000000000000000000, 0.00000000000000000000, 0.00000000000000000000, 0.00000000000000000000, 0.00000000000000000000, 0.00000000000000000000, 0.00000000000000000000, 0.00000000000000000000, 0.00000000000000000000, 0.00000000000000000000, 0.00000000000000000000, 0.00000000000000000000, 0.00000000000000000000, 0.00000000000000000000, 1.00000000000000000000, 1.00000000000000000000, 1669.00000000000000000000, 1679.00000000000000000000, 0.00000000000000000000
113.00000000000000000000, 0.00000000000000000000, 5294.87166539530520000000, 4073.33323372735140000000, 4229.74348631287920000000, 4186.15374378904290000000, 5788.71780716534610000000, 5155.89730981931190000000, 5329.23063891409310000000, 4253.33322932577810000000, 6303.58958944688490000000, 4380.51271339532100000000, 5645.64088758711020000000, 4185.64092328876270000000, 4222.05117880867240000000, 3850.25631610537040000000, 0.00000000000000000000, 0.00000000000000000000, 0.00000000000000000000, 0.00000000000000000000, 0.00000000000000000000, 0.00000000000000000000, 0.00000000000000000000, 0.00000000000000000000, 0.00000000000000000000, 0.00000000000000000000, 0.00000000000000000000, 0.00000000000000000000, 0.00000000000000000000, 0.00000000000000000000, 0.00000000000000000000, 1.00000000000000000000, 1.00000000000000000000, 1670.00000000000000000000, 1678.00000000000000000000, 0.00000000000000000000
114.00000000000000000000, 0.00000000000000000000, 5251.28192287146890000000, 4071.28195172623010000000, 4229.23066581259810000000, 4182.56400028708050000000, 5745.12806464151070000000, 5141.53833581146050000000, 5323.07679291072780000000, 4247.69220382269300000000, 6263.58959042501190000000, 4379.99989289504080000000, 5609.23063206720050000000, 4185.12810278848250000000, 4217.94861480642880000000, 3849.74349560508970000000, 0.00000000000000000000, 0.00000000000000000000, 0.00000000000000000000, 0.00000000000000000000, 0.00000000000000000000, 0.00000000000000000000, 0.00000000000000000000, 0.00000000000000000000, 0.00000000000000000000, 0.00000000000000000000, 0.00000000000000000000, 0.00000000000000000000, 0.00000000000000000000, 0.00000000000000000000, 0.00000000000000000000, 1.00000000000000000000, 1.00000000000000000000, 1670.00000000000000000000, 1681.00000000000000000000, 0.00000000000000000000
115.00000000000000000000, 0.00000000000000000000, 5225.12807735716800000000, 4073.84605422763210000000, 4222.56399930895260000000, 4183.58964128764090000000, 5742.05114163982850000000, 5131.28192580585160000000, 5345.64089492306630000000, 4251.79476782493660000000, 6200.51266889052110000000, 4376.41014939307840000000, 5573.33319704757100000000, 4183.58964128764090000000, 4216.41015330558820000000, 3849.74349560508970000000, 0.00000000000000000000, 0.00000000000000000000, 0.00000000000000000000, 0.00000000000000000000, 0.00000000000000000000, 0.00000000000000000000, 0.00000000000000000000, 0.00000000000000000000, 0.00000000000000000000, 0.00000000000000000000, 0.00000000000000000000, 0.00000000000000000000, 0.00000000000000000000, 0.00000000000000000000, 0.00000000000000000000, 1.00000000000000000000, 1.00000000000000000000, 1670.00000000000000000000, 1682.00000000000000000000, 0.00000000000000000000
116.00000000000000000000, 0.00000000000000000000, 5229.23064135941150000000, 4073.33323372735140000000, 4219.99989680755060000000, 4185.64092328876270000000, 5741.53832113954740000000, 5025.12808224780570000000, 5244.61525636782430000000, 4252.82040882549790000000, 6192.82036138631520000000, 4374.87168789223690000000, 5544.61524903186820000000, 4183.07682078736070000000, 4214.87169180474670000000, 3850.25631610537040000000, 0.00000000000000000000, 0.00000000000000000000, 0.00000000000000000000, 0.00000000000000000000, 0.00000000000000000000, 0.00000000000000000000, 0.00000000000000000000, 0.00000000000000000000, 0.00000000000000000000, 0.00000000000000000000, 0.00000000000000000000, 0.00000000000000000000, 0.00000000000000000000, 0.00000000000000000000, 0.00000000000000000000, 1.00000000000000000000, 1.00000000000000000000, 1670.00000000000000000000, 1684.00000000000000000000, 0.00000000000000000000
117.00000000000000000000, 0.00000000000000000000, 5240.51269236558070000000, 4065.64092622314550000000, 4223.58964030951390000000, 4182.56400028708050000000, 5751.79473114515620000000, 4943.58962270321900000000, 5161.02551482211580000000, 4249.23066532353460000000, 6289.23061543903350000000, 4377.43579039363890000000, 5553.84601803691570000000, 4182.56400028708050000000, 4215.38451230502690000000, 3851.28195710593130000000, 0.00000000000000000000, 0.00000000000000000000, 0.00000000000000000000, 0.00000000000000000000, 0.00000000000000000000, 0.00000000000000000000, 0.00000000000000000000, 0.00000000000000000000, 0.00000000000000000000, 0.00000000000000000000, 0.00000000000000000000, 0.00000000000000000000, 0.00000000000000000000, 0.00000000000000000000, 0.00000000000000000000, 1.00000000000000000000, 1.00000000000000000000, 1670.00000000000000000000, 1683.00000000000000000000, 0.00000000000000000000
118.00000000000000000000, 0.00000000000000000000, 5243.07679486698270000000, 4060.51272122034110000000, 4223.07681980923370000000, 4182.05117978680030000000, 5667.17934859888740000000, 4854.35885565442640000000, 5074.35885027472520000000, 4253.33322932577810000000, 6276.92292343230290000000, 4378.97425189448040000000, 5468.20499449008550000000, 4180.51271828595870000000, 4217.94861480642880000000, 3847.69221360396800000000, 0.00000000000000000000, 0.00000000000000000000, 0.00000000000000000000, 0.00000000000000000000, 0.00000000000000000000, 0.00000000000000000000, 0.00000000000000000000, 0.00000000000000000000, 0.00000000000000000000, 0.00000000000000000000, 0.00000000000000000000, 0.00000000000000000000, 0.00000000000000000000, 0.00000000000000000000, 0.00000000000000000000, 1.00000000000000000000, 1.00000000000000000000, 1669.00000000000000000000, 1684.00000000000000000000, 0.00000000000000000000
119.00000000000000000000, 0.00000000000000000000, 5198.46141134258600000000, 4053.84605471669560000000, 4216.92297380586840000000, 4184.61528228820230000000, 5487.69217350074180000000, 4709.74347457534900000000, 4933.84603319789130000000, 4256.41015232746030000000, 6166.15369537173320000000, 4374.35886739195670000000, 5263.58961487819940000000, 4173.84605178231320000000, 4210.25630730222290000000, 3848.71785460452880000000, 0.00000000000000000000, 0.00000000000000000000, 0.00000000000000000000, 0.00000000000000000000, 0.00000000000000000000, 0.00000000000000000000, 0.00000000000000000000, 0.00000000000000000000, 0.00000000000000000000, 0.00000000000000000000, 0.00000000000000000000, 0.00000000000000000000, 0.00000000000000000000, 0.00000000000000000000, 0.00000000000000000000, 1.00000000000000000000, 1.00000000000000000000, 1670.00000000000000000000, 1684.00000000000000000000, 0.00000000000000000000
120.00000000000000000000, 0.00000000000000000000, 5104.10243929098940000000, 4048.20502921361140000000, 4213.84605080418620000000, 4183.07682078736070000000, 5394.35884244970570000000, 4605.64091301842470000000, 4812.82039513171280000000, 4249.23066532353460000000, 6110.76908134144830000000, 4368.71784188887160000000, 5151.79474581706840000000, 4169.74348778006970000000, 4194.87169229381020000000, 3854.35888010761350000000, 0.00000000000000000000, 0.00000000000000000000, 0.00000000000000000000, 0.00000000000000000000, 0.00000000000000000000, 0.00000000000000000000, 0.00000000000000000000, 0.00000000000000000000, 0.00000000000000000000, 0.00000000000000000000, 0.00000000000000000000, 0.00000000000000000000, 0.00000000000000000000, 0.00000000000000000000, 0.00000000000000000000, 1.00000000000000000000, 1.00000000000000000000, 1669.00000000000000000000, 1683.00000000000000000000, 0.00000000000000000000
121.00000000000000000000, 0.00000000000000000000, 4962.05116071331390000000, 4027.69220920239470000000, 4205.12810229941900000000, 4180.51271828595870000000, 5012.30756974079490000000, 4426.66655842055840000000, 4616.92296402459400000000, 4246.66656282213260000000, 5786.15370466394420000000, 4361.53835488494590000000, 4827.17936913956420000000, 4157.43579577334000000000, 4175.38451328315480000000, 3852.30759810649170000000, 0.00000000000000000000, 0.00000000000000000000, 0.00000000000000000000, 0.00000000000000000000, 0.00000000000000000000, 0.00000000000000000000, 0.00000000000000000000, 0.00000000000000000000, 0.00000000000000000000, 0.00000000000000000000, 0.00000000000000000000, 0.00000000000000000000, 0.00000000000000000000, 0.00000000000000000000, 0.00000000000000000000, 1.00000000000000000000, 1.00000000000000000000, 1669.00000000000000000000, 1685.00000000000000000000, 0.00000000000000000000
122.00000000000000000000, 0.00000000000000000000, 4809.23065162974940000000, 4010.25631219286020000000, 4201.02553829717540000000, 4176.41015428371520000000, 4747.17937109581910000000, 4350.25630387877660000000, 4546.66655548617650000000, 4254.87169082661880000000, 5565.12806904308400000000, 4358.46143188326370000000, 4608.71783602010690000000, 4145.64092426689060000000, 4154.87169327193810000000, 3847.17939310368770000000, 0.00000000000000000000, 0.00000000000000000000, 0.00000000000000000000, 0.00000000000000000000, 0.00000000000000000000, 0.00000000000000000000, 0.00000000000000000000, 0.00000000000000000000, 0.00000000000000000000, 0.00000000000000000000, 0.00000000000000000000, 0.00000000000000000000, 0.00000000000000000000, 0.00000000000000000000, 0.00000000000000000000, 1.00000000000000000000, 1.00000000000000000000, 1670.00000000000000000000, 1684.00000000000000000000, 0.00000000000000000000
123.00000000000000000000, 0.00000000000000000000, 4690.76911606497380000000, 4009.74349169257990000000, 4199.48707679633390000000, 4169.74348778006970000000, 4743.58962759385670000000, 4398.46143090513580000000, 4567.69219599767350000000, 4256.41015232746030000000, 5466.66653298924480000000, 4355.38450888158060000000, 4600.51270801561990000000, 4142.56400126520750000000, 4142.05118076492730000000, 3849.74349560508970000000, 0.00000000000000000000, 0.00000000000000000000, 0.00000000000000000000, 0.00000000000000000000, 0.00000000000000000000, 0.00000000000000000000, 0.00000000000000000000, 0.00000000000000000000, 0.00000000000000000000, 0.00000000000000000000, 0.00000000000000000000, 0.00000000000000000000, 0.00000000000000000000, 0.00000000000000000000, 0.00000000000000000000, 1.00000000000000000000, 1.00000000000000000000, 1668.00000000000000000000, 1686.00000000000000000000, 0.00000000000000000000
124.00000000000000000000, 0.00000000000000000000, 4662.56398854955020000000, 4017.94861969706650000000, 4192.30758979240820000000, 4169.74348778006970000000, 4881.53834216928860000000, 4597.94860551421790000000, 4735.89732008964980000000, 4250.76912682437610000000, 5396.92294495110760000000, 4348.20502187765490000000, 4747.69219159610020000000, 4142.05118076492730000000, 4145.12810376661040000000, 3854.87170060789410000000, 0.00000000000000000000, 0.00000000000000000000, 0.00000000000000000000, 0.00000000000000000000, 0.00000000000000000000, 0.00000000000000000000, 0.00000000000000000000, 0.00000000000000000000, 0.00000000000000000000, 0.00000000000000000000, 0.00000000000000000000, 0.00000000000000000000, 0.00000000000000000000, 0.00000000000000000000, 0.00000000000000000000, 1.00000000000000000000, 1.00000000000000000000, 1669.00000000000000000000, 1687.00000000000000000000, 0.00000000000000000000
125.00000000000000000000, 0.00000000000000000000, 4726.15373058432210000000, 4027.17938870211400000000, 4193.33323079296950000000, 4172.82041078175280000000, 4979.99987822312870000000, 4801.53834412554350000000, 4938.97423820069530000000, 4250.76912682437610000000, 5481.53832749737650000000, 4349.74348337849640000000, 4878.97423966788660000000, 4147.69220626801230000000, 4156.41015477277960000000, 3857.94862360957630000000, 0.00000000000000000000, 0.00000000000000000000, 0.00000000000000000000, 0.00000000000000000000, 0.00000000000000000000, 0.00000000000000000000, 0.00000000000000000000, 0.00000000000000000000, 0.00000000000000000000, 0.00000000000000000000, 0.00000000000000000000, 0.00000000000000000000, 0.00000000000000000000, 0.00000000000000000000, 0.00000000000000000000, 1.00000000000000000000, 1.00000000000000000000, 1668.00000000000000000000, 1687.00000000000000000000, 0.00000000000000000000
126.00000000000000000000, 0.00000000000000000000, 4813.84603613227410000000, 4042.05118321024610000000, 4205.64092279969920000000, 4173.84605178231320000000, 5192.82038583950180000000, 4978.97423722256830000000, 5118.46141329884090000000, 4253.33322932577810000000, 5779.99985866057890000000, 4362.05117538522610000000, 5085.12808078061430000000, 4159.99989827474200000000, 4167.69220577894790000000, 3859.48708511041790000000, 0.00000000000000000000, 0.00000000000000000000, 0.00000000000000000000, 0.00000000000000000000, 0.00000000000000000000, 0.00000000000000000000, 0.00000000000000000000, 0.00000000000000000000, 0.00000000000000000000, 0.00000000000000000000, 0.00000000000000000000, 0.00000000000000000000, 0.00000000000000000000, 0.00000000000000000000, 0.00000000000000000000, 1.00000000000000000000, 1.00000000000000000000, 1669.00000000000000000000, 1686.00000000000000000000, 0.00000000000000000000
127.00000000000000000000, 0.00000000000000000000, 4838.97424064601360000000, 4047.69220871333070000000, 4203.07682029829720000000, 4177.94861578455680000000, 5207.69218034763340000000, 4978.46141672228710000000, 5093.33320878510130000000, 4251.79476782493660000000, 5677.43575860449620000000, 4361.53835488494590000000, 5111.79474679519630000000, 4164.61528277726570000000, 4168.20502627922910000000, 3857.43580310929610000000, 0.00000000000000000000, 0.00000000000000000000, 0.00000000000000000000, 0.00000000000000000000, 0.00000000000000000000, 0.00000000000000000000, 0.00000000000000000000, 0.00000000000000000000, 0.00000000000000000000, 0.00000000000000000000, 0.00000000000000000000, 0.00000000000000000000, 0.00000000000000000000, 0.00000000000000000000, 0.00000000000000000000, 1.00000000000000000000, 1.00000000000000000000, 1668.00000000000000000000, 1686.00000000000000000000, 0.00000000000000000000
